Mon Jan 13 19:26:14 2020

Number of Points = 3023
Depth (nm)	Load (µN)	Time (s)	Depth (V)	Load (V)
0.270716	-0.026519	0.000000	-0.000013	0.485882

0.340869	-0.051042	0.005005	-0.000026	0.485883
0.335298	-0.049799	0.010010	-0.000025	0.485881
0.202174	-0.015994	0.015014	-0.000001	0.485839
0.262937	-0.121171	0.020019	-0.000012	0.485567
0.215058	-0.104159	0.025024	-0.000003	0.485568
0.152763	-0.084542	0.030029	0.000008	0.485561
0.148846	-0.079679	0.035034	0.000009	0.485573
0.314718	-0.223129	0.040038	-0.000021	0.485296
0.357203	-0.249112	0.045043	-0.000029	0.485261
0.292386	-0.269245	0.050048	-0.000018	0.485121
0.185856	-0.290947	0.055053	0.000002	0.484929
0.238906	-0.338035	0.060058	-0.000008	0.484837
0.218028	-0.397065	0.065062	-0.000004	0.484621
0.253156	-0.453924	0.070067	-0.000011	0.484476
0.159393	-0.474316	0.075072	0.000006	0.484302
0.134386	-0.541690	0.080077	0.000010	0.484054
0.156650	-0.595394	0.085082	0.000006	0.483904
0.187827	-0.673845	0.090086	0.000001	0.483684
0.248344	-0.779507	0.095091	-0.000010	0.483409
0.077517	-0.792699	0.100096	0.000020	0.483169
0.051122	-0.849793	0.105101	0.000025	0.482952
0.132507	-0.947150	0.110106	0.000010	0.482728
0.127936	-1.034037	0.115110	0.000011	0.482438
0.007092	-1.080927	0.120115	0.000033	0.482145
0.147584	-1.225113	0.125120	0.000007	0.481835
0.167155	-1.328522	0.130125	0.000004	0.481519
-0.115302	-1.330842	0.135130	0.000055	0.481184
0.016137	-1.475906	0.140134	0.000031	0.480860
-0.005428	-1.572624	0.145139	0.000035	0.480517
-0.088703	-1.646405	0.150144	0.000050	0.480178
-0.139710	-1.736830	0.155149	0.000059	0.479821
-0.177630	-1.831694	0.160154	0.000065	0.479465
-0.156004	-1.948907	0.165158	0.000061	0.479104
-0.067706	-2.107060	0.170163	0.000045	0.478685
-0.189571	-2.186657	0.175168	0.000067	0.478280
-0.336335	-2.240430	0.180173	0.000094	0.477931
-0.233017	-2.396680	0.185178	0.000075	0.477535
-0.384631	-2.482269	0.190182	0.000102	0.477075
-0.406994	-2.590994	0.195187	0.000106	0.476688
-0.366336	-2.747447	0.200192	0.000099	0.476217
-0.786074	-2.730062	0.205197	0.000175	0.475783
-1.285219	-2.670141	0.210202	0.000265	0.475398
-1.605423	-2.672554	0.215206	0.000323	0.475014
-1.986203	-2.650113	0.220211	0.000391	0.474642
-2.414618	-2.593457	0.225216	0.000469	0.474328
-2.680547	-2.587136	0.230221	0.000517	0.474036
-2.972419	-2.573445	0.235226	0.000569	0.473739
-3.094432	-2.619221	0.240230	0.000591	0.473443
-3.368072	-2.602546	0.245235	0.000640	0.473177
-3.443795	-2.641541	0.250240	0.000654	0.472957
-3.808725	-2.580985	0.255245	0.000720	0.472730
-3.835676	-2.646232	0.260250	0.000725	0.472480
-4.276663	-2.569226	0.265254	0.000804	0.472218
-4.162921	-2.686332	0.270259	0.000784	0.471960
-4.562545	-2.607772	0.275264	0.000856	0.471752
-4.727329	-2.601130	0.280269	0.000885	0.471580
-5.124918	-2.551167	0.285274	0.000957	0.471277
-5.024239	-2.628915	0.290278	0.000939	0.471136
-5.530009	-2.500946	0.295283	0.001030	0.470967
-5.278975	-2.667073	0.300288	0.000985	0.470707
-5.575511	-2.600870	0.305293	0.001038	0.470579
-6.045392	-2.505483	0.310298	0.001123	0.470343
-5.906478	-2.603545	0.315302	0.001098	0.470178
-5.983342	-2.627229	0.320307	0.001112	0.470008
-6.506089	-2.515865	0.325312	0.001206	0.469762
-6.238777	-2.627838	0.330317	0.001158	0.469703
-6.698600	-2.553543	0.335322	0.001241	0.469408
-6.303808	-2.715284	0.340326	0.001169	0.469333
-7.145401	-2.489784	0.345331	0.001321	0.469093
-6.726448	-2.670384	0.350336	0.001245	0.468982
-7.266181	-2.544369	0.355341	0.001343	0.468766
-7.032361	-2.667919	0.360346	0.001301	0.468628
-7.539733	-2.534785	0.365350	0.001392	0.468474
-7.497173	-2.604254	0.370355	0.001384	0.468290
-7.774750	-2.544893	0.375360	0.001434	0.468161
-7.678470	-2.617129	0.380365	0.001417	0.468032
-7.744781	-2.624998	0.385370	0.001429	0.467927
-7.867040	-2.661350	0.390374	0.001451	0.467658
-8.098357	-2.600532	0.395379	0.001493	0.467589
-8.417689	-2.575065	0.400384	0.001550	0.467294
-8.511594	-2.546410	0.405389	0.001567	0.467280
-8.661760	-2.577228	0.410394	0.001594	0.466996
-8.723106	-2.567470	0.415398	0.001605	0.466957
-8.728700	-2.638329	0.420403	0.001606	0.466710
-9.061606	-2.535453	0.425408	0.001666	0.466662
-9.135623	-2.587132	0.430413	0.001679	0.466398
-9.329776	-2.535721	0.435418	0.001714	0.466341
-9.155396	-2.662808	0.440422	0.001683	0.466119
-9.830146	-2.451140	0.445427	0.001805	0.466030
-9.672817	-2.562555	0.450432	0.001776	0.465841
-9.889202	-2.524308	0.455437	0.001815	0.465712
-9.622490	-2.666820	0.460442	0.001767	0.465548
-10.191000	-2.505849	0.465446	0.001869	0.465414
-9.941480	-2.645077	0.470451	0.001824	0.465241
-10.470108	-2.505659	0.475456	0.001920	0.465081
-10.261984	-2.625662	0.480461	0.001882	0.464923
-10.660491	-2.532823	0.485466	0.001954	0.464761
-10.490470	-2.626521	0.490470	0.001923	0.464647
-11.067064	-2.481058	0.495475	0.002027	0.464450
-10.869249	-2.568783	0.500480	0.001991	0.464390
-11.356152	-2.467092	0.505485	0.002079	0.464152
-11.020241	-2.587660	0.510490	0.002018	0.464145
-11.469303	-2.522396	0.515494	0.002100	0.463828
-11.365137	-2.560823	0.520499	0.002081	0.463823
-11.807337	-2.478780	0.525504	0.002160	0.463571
-11.523889	-2.593813	0.530509	0.002109	0.463520
-11.928208	-2.512210	0.535514	0.002182	0.463313
-11.938017	-2.539487	0.540518	0.002184	0.463208
-12.217562	-2.478556	0.545523	0.002234	0.463080
-12.262794	-2.502591	0.550528	0.002242	0.462944
-12.204825	-2.550616	0.555533	0.002232	0.462850
-12.348137	-2.568926	0.560538	0.002257	0.462615
-12.500050	-2.544852	0.565542	0.002285	0.462515
-12.653834	-2.553229	0.570547	0.002313	0.462301
-12.861096	-2.499339	0.575552	0.002350	0.462236
-12.885956	-2.564573	0.580557	0.002354	0.461983
-13.273393	-2.429191	0.585562	0.002424	0.461979
-13.245292	-2.525203	0.590566	0.002419	0.461685
-13.401120	-2.470776	0.595571	0.002447	0.461684
-13.400221	-2.544075	0.600576	0.002447	0.461434
-13.759533	-2.440386	0.605581	0.002512	0.461356
-13.574671	-2.558499	0.610586	0.002478	0.461175
-13.824321	-2.507717	0.615590	0.002523	0.461047
-13.759822	-2.585991	0.620595	0.002511	0.460857
-14.141614	-2.486929	0.625600	0.002580	0.460736
-13.919209	-2.616694	0.630605	0.002540	0.460560
-14.361297	-2.501581	0.635610	0.002620	0.460420
-14.158921	-2.632836	0.640614	0.002583	0.460215
-14.800619	-2.441280	0.645619	0.002699	0.460096
-14.628154	-2.550260	0.650624	0.002668	0.459931
-14.796159	-2.532634	0.655629	0.002698	0.459788
-14.734771	-2.602678	0.660634	0.002687	0.459622
-15.245248	-2.466206	0.665638	0.002779	0.459472
-15.086917	-2.554359	0.670643	0.002750	0.459362
-15.346665	-2.519451	0.675648	0.002797	0.459167
-15.157521	-2.623875	0.680653	0.002763	0.459038
-15.676209	-2.498306	0.685658	0.002857	0.458840
-15.440295	-2.619646	0.690662	0.002814	0.458709
-16.012536	-2.467115	0.695667	0.002917	0.458540
-15.720794	-2.604645	0.700672	0.002864	0.458421
-16.358672	-2.435680	0.705677	0.002980	0.458228
-15.980783	-2.586423	0.710682	0.002911	0.458168
-16.300953	-2.524706	0.715686	0.002969	0.457992
-16.080093	-2.641974	0.720691	0.002929	0.457856
-16.687584	-2.486987	0.725696	0.003039	0.457652
-16.454244	-2.604298	0.730701	0.002996	0.457531
-16.843315	-2.523544	0.735706	0.003067	0.457336
-16.488398	-2.693476	0.740710	0.003002	0.457182
-17.071289	-2.538503	0.745715	0.003108	0.457007
-17.150975	-2.558605	0.750720	0.003122	0.456841
-17.347858	-2.526272	0.755725	0.003157	0.456713
-17.166070	-2.645867	0.760730	0.003124	0.456521
-17.757244	-2.476678	0.765734	0.003231	0.456385
-17.630829	-2.563142	0.770739	0.003208	0.456241
-17.848280	-2.533994	0.775744	0.003247	0.456076
-17.723364	-2.625758	0.780749	0.003225	0.455911
-18.305654	-2.464570	0.785754	0.003330	0.455758
-18.138191	-2.550228	0.790758	0.003300	0.455667
-18.567588	-2.457927	0.795763	0.003377	0.455462
-18.182665	-2.619351	0.800768	0.003307	0.455373
-18.921216	-2.430120	0.805773	0.003441	0.455126
-18.605786	-2.542604	0.810778	0.003384	0.455122
-19.097138	-2.457337	0.815782	0.003472	0.454816
-18.739233	-2.581725	0.820787	0.003408	0.454824
-19.302901	-2.469942	0.825792	0.003509	0.454521
-19.060899	-2.559869	0.830797	0.003466	0.454506
-19.433036	-2.498682	0.835802	0.003533	0.454262
-19.109901	-2.629708	0.840806	0.003474	0.454204
-19.689421	-2.509748	0.845811	0.003579	0.453909
-19.599921	-2.550965	0.850816	0.003563	0.453877
-20.015791	-2.473834	0.855821	0.003638	0.453634
-19.683217	-2.608180	0.860826	0.003577	0.453576
-20.231899	-2.485157	0.865830	0.003677	0.453330
-20.059905	-2.561973	0.870835	0.003645	0.453274
-20.443737	-2.480225	0.875840	0.003715	0.453087
-20.135499	-2.609974	0.880845	0.003659	0.453015
-20.487257	-2.562830	0.885850	0.003722	0.452746
-20.579497	-2.550733	0.890854	0.003739	0.452675
-21.002013	-2.476645	0.895859	0.003815	0.452414
-20.741208	-2.584565	0.900864	0.003768	0.452359
-21.295606	-2.462585	0.905869	0.003868	0.452102
-21.115047	-2.543238	0.910874	0.003835	0.452043
-21.475005	-2.472761	0.915878	0.003900	0.451845
-21.085406	-2.639794	0.920883	0.003830	0.451742
-21.803010	-2.458777	0.925888	0.003959	0.451490
-21.625884	-2.543149	0.930893	0.003927	0.451414
-21.856755	-2.509731	0.935898	0.003969	0.451246
-21.780872	-2.573448	0.940902	0.003955	0.451117
-22.210395	-2.477872	0.945907	0.004033	0.450921
-22.235331	-2.504510	0.950912	0.004037	0.450797
-22.309720	-2.516665	0.955917	0.004050	0.450663
-22.325274	-2.560197	0.960922	0.004053	0.450492
-22.713252	-2.465714	0.965926	0.004123	0.450343
-22.751254	-2.502843	0.970931	0.004130	0.450166
-23.048446	-2.413748	0.975936	0.004183	0.450111
-22.727781	-2.600235	0.980941	0.004125	0.449854
-23.024480	-2.517822	0.985946	0.004179	0.449776
-23.300954	-2.487749	0.990950	0.004229	0.449539
-23.283149	-2.509229	0.995955	0.004226	0.449486
-23.486073	-2.511078	1.000960	0.004262	0.449228

-23.740234	-2.495735	1.010957	0.004308	0.448967
-23.747175	-2.523543	1.020954	0.004309	0.448862
-24.136200	-2.459839	1.030950	0.004379	0.448604
-23.953991	-2.524899	1.040947	0.004346	0.448602
-24.248747	-2.421948	1.050944	0.004399	0.448600
-24.123154	-2.517563	1.060941	0.004376	0.448420
-24.423052	-2.427063	1.070938	0.004430	0.448367
-24.137415	-2.532504	1.080934	0.004378	0.448352
-24.217823	-2.519930	1.090931	0.004393	0.448298
-24.182510	-2.535078	1.100928	0.004386	0.448289
-24.191731	-2.487369	1.110925	0.004388	0.448448
-23.963187	-2.532325	1.120922	0.004346	0.448575
-24.229295	-2.429730	1.130918	0.004394	0.448607
-23.905470	-2.543377	1.140915	0.004335	0.448610
-24.260285	-2.418625	1.150912	0.004399	0.448610
-23.968243	-2.523892	1.160909	0.004346	0.448603
-24.192172	-2.444850	1.170906	0.004387	0.448605
-23.938614	-2.494887	1.180902	0.004341	0.448745
-23.871454	-2.471991	1.190899	0.004328	0.448911
-23.662381	-2.547903	1.200896	0.004290	0.448905
-23.892789	-2.465356	1.210893	0.004332	0.448910
-23.767526	-2.512082	1.220890	0.004309	0.448903
-23.665375	-2.509873	1.230886	0.004290	0.449039
-23.530424	-2.504802	1.240883	0.004266	0.449226
-23.725587	-2.436021	1.250880	0.004301	0.449227
-23.608693	-2.478487	1.260877	0.004279	0.449224
-23.574581	-2.434550	1.270874	0.004273	0.449422
-23.235270	-2.521463	1.280870	0.004212	0.449539
-23.480098	-2.437011	1.290867	0.004256	0.449534
-23.297295	-2.501059	1.300864	0.004222	0.449537
-23.243050	-2.451553	1.310861	0.004212	0.449780
-23.104175	-2.480659	1.320858	0.004187	0.449851
-23.336824	-2.400339	1.330854	0.004229	0.449846
-23.032992	-2.489005	1.340851	0.004174	0.449912
-22.876133	-2.474472	1.350848	0.004145	0.450160
-22.931022	-2.455834	1.360845	0.004155	0.450158
-22.910983	-2.462491	1.370842	0.004151	0.450161
-22.714686	-2.516998	1.380838	0.004116	0.450214
-22.621647	-2.472214	1.390835	0.004099	0.450488
-22.510165	-2.512850	1.400832	0.004078	0.450485
-22.702728	-2.445265	1.410829	0.004113	0.450485
-22.536858	-2.503180	1.420826	0.004083	0.450488
-22.387714	-2.484665	1.430822	0.004056	0.450740
-22.245350	-2.520621	1.440819	0.004030	0.450791
-22.426094	-2.458176	1.450816	0.004062	0.450788
-22.261881	-2.516873	1.460813	0.004032	0.450786
-22.240131	-2.497749	1.470810	0.004028	0.450882
-21.828775	-2.576849	1.480806	0.003954	0.451115
-22.084990	-2.489545	1.490803	0.004000	0.451105
-22.076431	-2.491938	1.500800	0.003998	0.451109
-22.162034	-2.458655	1.510797	0.004013	0.451121
-21.765499	-2.516970	1.520794	0.003941	0.451408
-21.832047	-2.492793	1.530790	0.003953	0.451412
-21.683865	-2.544753	1.540787	0.003926	0.451414
-21.769652	-2.516440	1.550784	0.003942	0.451409
-21.691414	-2.479368	1.560781	0.003927	0.451637
-21.665895	-2.459827	1.570778	0.003923	0.451738
-21.537596	-2.504413	1.580774	0.003899	0.451742
-21.573823	-2.485493	1.590771	0.003906	0.451765
-21.270195	-2.515916	1.600768	0.003850	0.452035
-21.407734	-2.465205	1.610765	0.003875	0.452044
-21.374754	-2.477619	1.620762	0.003869	0.452042
-21.255783	-2.490513	1.630758	0.003847	0.452145
-21.059006	-2.497951	1.640755	0.003812	0.452364
-21.152966	-2.466501	1.650752	0.003828	0.452359
-21.180310	-2.455453	1.660749	0.003833	0.452365
-21.028256	-2.458519	1.670746	0.003805	0.452543
-20.873961	-2.475933	1.680742	0.003777	0.452674
-20.946898	-2.451064	1.690739	0.003790	0.452672
-20.904701	-2.455735	1.700736	0.003783	0.452709
-20.574496	-2.487398	1.710733	0.003723	0.453007
-20.595243	-2.477803	1.720730	0.003726	0.453016
-20.677406	-2.449276	1.730726	0.003741	0.453016
-20.596144	-2.478458	1.740723	0.003726	0.453016
-20.550154	-2.424538	1.750720	0.003718	0.453262
-20.284910	-2.519017	1.760717	0.003669	0.453260
-20.426929	-2.469013	1.770714	0.003695	0.453261
-20.362338	-2.474925	1.780710	0.003683	0.453321
-19.979688	-2.537213	1.790707	0.003614	0.453576
-20.124035	-2.486780	1.800704	0.003640	0.453576
-20.096838	-2.498061	1.810701	0.003635	0.453571
-20.042984	-2.517393	1.820698	0.003625	0.453571
-19.911711	-2.507557	1.830694	0.003601	0.453769
-19.915543	-2.473891	1.840691	0.003601	0.453883
-19.890157	-2.483828	1.850688	0.003596	0.453880
-19.872139	-2.490381	1.860685	0.003593	0.453881
-19.589758	-2.497893	1.870682	0.003542	0.454203
-19.737098	-2.445217	1.880678	0.003568	0.454207
-19.598295	-2.496539	1.890675	0.003543	0.454200
-19.584982	-2.496331	1.900672	0.003540	0.454219
-19.476789	-2.452277	1.910669	0.003521	0.454506
-19.484038	-2.449847	1.920666	0.003522	0.454507
-19.492531	-2.446687	1.930662	0.003523	0.454509
-19.402731	-2.409269	1.940659	0.003507	0.454751
-19.208095	-2.457954	1.950656	0.003471	0.454822
-19.188948	-2.462569	1.960653	0.003468	0.454830
-19.138465	-2.472504	1.970650	0.003458	0.454859
-18.962740	-2.456204	1.980646	0.003426	0.455133
-18.905622	-2.476833	1.990643	0.003416	0.455132
-18.786471	-2.518989	2.000640	0.003394	0.455133
-18.787100	-2.518794	2.010637	0.003394	0.455134
-18.741887	-2.491871	2.020634	0.003386	0.455285
-18.565914	-2.502873	2.030630	0.003354	0.455464
-18.670247	-2.466212	2.040627	0.003372	0.455464
-18.574690	-2.501044	2.050624	0.003355	0.455462
-18.635846	-2.465821	2.060621	0.003366	0.455510
-18.407120	-2.471684	2.070618	0.003324	0.455772
-18.443372	-2.460394	2.080614	0.003331	0.455768
-18.259057	-2.525293	2.090611	0.003297	0.455769
-18.403288	-2.452175	2.100608	0.003323	0.455848
-17.960606	-2.542579	2.110605	0.003243	0.456078
-18.080831	-2.499252	2.120602	0.003264	0.456082
-17.973114	-2.538679	2.130598	0.003245	0.456078
-17.928859	-2.553340	2.140595	0.003237	0.456083
-17.868880	-2.576543	2.150592	0.003226	0.456077
-17.841272	-2.521152	2.160589	0.003220	0.456304
-17.640771	-2.568408	2.170586	0.003184	0.456387
-17.737860	-2.534303	2.180582	0.003201	0.456388
-17.590060	-2.586678	2.190579	0.003174	0.456388
-17.704330	-2.545678	2.200576	0.003195	0.456392
-17.493373	-2.558030	2.210573	0.003157	0.456608
-17.577546	-2.495925	2.220570	0.003172	0.456722
-17.379840	-2.569459	2.230566	0.003136	0.456710
-17.475373	-2.535734	2.240563	0.003153	0.456711
-17.433228	-2.492317	2.250560	0.003145	0.456915
-17.364933	-2.487831	2.260557	0.003132	0.457015
-17.135341	-2.567280	2.270554	0.003091	0.457022
-17.303682	-2.494486	2.280550	0.003121	0.457069
-17.043617	-2.510512	2.290547	0.003074	0.457333
-17.075298	-2.499190	2.300544	0.003079	0.457334
-17.068930	-2.500457	2.310541	0.003078	0.457339
-16.991321	-2.476891	2.320538	0.003064	0.457517
-16.836621	-2.493350	2.330534	0.003036	0.457650
-16.834293	-2.494851	2.340531	0.003035	0.457649
-16.645576	-2.562847	2.350528	0.003001	0.457645
-16.655339	-2.479157	2.360525	0.003002	0.457924
-16.374433	-2.560606	2.370522	0.002951	0.457986
-16.530197	-2.506524	2.380518	0.002979	0.457984
-16.482263	-2.525732	2.390515	0.002970	0.457978
-16.452340	-2.516086	2.400512	0.002965	0.458049
-16.144479	-2.571028	2.410509	0.002909	0.458235
-16.327773	-2.506927	2.420506	0.002942	0.458235
-16.212850	-2.546298	2.430502	0.002921	0.458240
-16.277985	-2.495704	2.440499	0.002933	0.458337
-16.025870	-2.523268	2.450496	0.002887	0.458550
-16.053784	-2.515617	2.460493	0.002892	0.458544
-15.959192	-2.550248	2.470490	0.002874	0.458540
-16.026719	-2.495904	2.480486	0.002886	0.458647
-15.629507	-2.580200	2.490483	0.002815	0.458841
-15.783982	-2.523369	2.500480	0.002842	0.458850
-15.782196	-2.524816	2.510477	0.002842	0.458849
-15.745367	-2.499575	2.520474	0.002835	0.458982
-15.410564	-2.563772	2.530470	0.002774	0.459169
-15.543834	-2.515112	2.540467	0.002798	0.459176
-15.491894	-2.533244	2.550464	0.002789	0.459178
-15.456275	-2.521698	2.560461	0.002782	0.459262
-15.204586	-2.548826	2.570458	0.002736	0.459476
-15.330855	-2.505992	2.580454	0.002759	0.459471
-15.257009	-2.533032	2.590451	0.002745	0.459469
-15.232879	-2.503916	2.600448	0.002741	0.459600
-14.981435	-2.538187	2.610445	0.002695	0.459789
-15.064984	-2.510494	2.620442	0.002710	0.459784
-14.898609	-2.568510	2.630438	0.002680	0.459787
-14.950538	-2.527747	2.640435	0.002689	0.459866
-14.755519	-2.528722	2.650432	0.002654	0.460101
-14.662769	-2.562931	2.660429	0.002637	0.460097
-14.682569	-2.555753	2.670426	0.002640	0.460099
-14.764189	-2.526413	2.680422	0.002655	0.460102
-14.434382	-2.550787	2.690419	0.002595	0.460419
-14.565070	-2.502271	2.700416	0.002618	0.460429
-14.512423	-2.521879	2.710413	0.002609	0.460427
-14.484867	-2.527986	2.720410	0.002603	0.460440
-14.241121	-2.528617	2.730406	0.002559	0.460735
-14.236291	-2.531993	2.740403	0.002558	0.460730
-14.252738	-2.527544	2.750400	0.002561	0.460727
-14.362173	-2.468074	2.760397	0.002580	0.460800
-13.987976	-2.527897	2.770394	0.002513	0.461049
-14.061828	-2.503538	2.780390	0.002526	0.461044
-14.114645	-2.485291	2.790387	0.002535	0.461044
-13.815840	-2.529228	2.800384	0.002481	0.461257
-13.863855	-2.485673	2.810381	0.002489	0.461349
-13.714063	-2.536968	2.820378	0.002462	0.461356
-13.776000	-2.515196	2.830374	0.002473	0.461357
-13.625236	-2.542855	2.840371	0.002446	0.461445
-13.304495	-2.588217	2.850368	0.002388	0.461679
-13.408793	-2.550521	2.860365	0.002406	0.461684
-13.433067	-2.542219	2.870362	0.002411	0.461684
-13.473637	-2.528327	2.880358	0.002418	0.461684
-13.272555	-2.554816	2.890355	0.002381	0.461837
-13.243656	-2.524082	2.900352	0.002376	0.461979
-13.144334	-2.557340	2.910349	0.002358	0.461986
-13.241434	-2.524282	2.920346	0.002375	0.461983
-12.955177	-2.590828	2.930342	0.002323	0.462102
-12.910199	-2.548715	2.940339	0.002315	0.462302
-12.952486	-2.535427	2.950336	0.002322	0.462298
-13.009114	-2.514444	2.960333	0.002332	0.462303
-12.793157	-2.587854	2.970330	0.002293	0.462313
-12.767454	-2.511130	2.980326	0.002288	0.462608
-12.550088	-2.586804	2.990323	0.002249	0.462613
-12.539435	-2.593416	3.000320	0.002247	0.462604
-12.476953	-2.613184	3.010317	0.002235	0.462613
-12.495329	-2.606231	3.020314	0.002238	0.462616
-12.303764	-2.579412	3.030310	0.002203	0.462940
-12.230039	-2.604207	3.040307	0.002190	0.462946
-12.129140	-2.640268	3.050304	0.002172	0.462945
-12.291706	-2.582939	3.060301	0.002201	0.462947
-12.335575	-2.562615	3.070298	0.002208	0.462964
-12.168148	-2.548356	3.080294	0.002178	0.463216
-12.120023	-2.566280	3.090291	0.002169	0.463214
-11.971120	-2.619928	3.100288	0.002142	0.463212
-11.980675	-2.597421	3.110285	0.002144	0.463278
-11.730196	-2.613599	3.120282	0.002098	0.463526
-11.719716	-2.617694	3.130278	0.002096	0.463526
-11.916726	-2.548593	3.140275	0.002131	0.463526
-11.893072	-2.543362	3.150272	0.002127	0.463573
-11.654316	-2.554373	3.160269	0.002084	0.463825
-11.546770	-2.593694	3.170266	0.002064	0.463821
-11.496977	-2.610948	3.180262	0.002055	0.463823
-11.451518	-2.609540	3.190259	0.002046	0.463884
-11.235491	-2.608953	3.200256	0.002007	0.464147
-11.232581	-2.608670	3.210253	0.002007	0.464153
-11.319508	-2.578472	3.220250	0.002022	0.464153
-11.283479	-2.592084	3.230246	0.002015	0.464151
-11.100695	-2.580517	3.240243	0.001982	0.464411
-11.011024	-2.600393	3.250240	0.001966	0.464453
-10.978099	-2.610777	3.260237	0.001960	0.464458
-10.935723	-2.628028	3.270234	0.001952	0.464451
-10.970171	-2.577555	3.280230	0.001958	0.464583
-10.763160	-2.594602	3.290227	0.001920	0.464775
-10.867053	-2.559900	3.300224	0.001939	0.464770
-10.877568	-2.551356	3.310221	0.001940	0.464787
-10.691080	-2.531218	3.320218	0.001907	0.465081
-10.587990	-2.568532	3.330214	0.001888	0.465079
-10.543683	-2.585950	3.340211	0.001880	0.465074
-10.391174	-2.625219	3.350208	0.001852	0.465125
-10.167026	-2.621667	3.360205	0.001811	0.465407
-10.163663	-2.623459	3.370202	0.001810	0.465406
-10.269556	-2.585997	3.380198	0.001829	0.465408
-10.271177	-2.584007	3.390195	0.001829	0.465414
-10.167654	-2.589102	3.400192	0.001811	0.465522
-9.958677	-2.604690	3.410189	0.001773	0.465721
-9.928690	-2.616552	3.420186	0.001767	0.465718
-10.066788	-2.566993	3.430182	0.001792	0.465722
-9.992852	-2.567311	3.440179	0.001778	0.465811
-9.620328	-2.634962	3.450176	0.001711	0.466029
-9.837422	-2.558159	3.460173	0.001750	0.466031
-9.893695	-2.536071	3.470170	0.001760	0.466039
-9.600177	-2.600570	3.480166	0.001706	0.466173
-9.530113	-2.578242	3.490163	0.001694	0.466334
-9.377264	-2.631452	3.500160	0.001666	0.466338
-9.518620	-2.581458	3.510157	0.001691	0.466339
-9.344716	-2.642418	3.520154	0.001660	0.466342
-9.165567	-2.612541	3.530150	0.001627	0.466659
-9.215283	-2.592971	3.540147	0.001636	0.466667
-9.230990	-2.589753	3.550144	0.001638	0.466660
-9.208582	-2.594794	3.560141	0.001634	0.466671
-9.092018	-2.565902	3.570138	0.001613	0.466910
-9.096789	-2.546355	3.580134	0.001614	0.466972
-9.233077	-2.499243	3.590131	0.001638	0.466970
-8.973966	-2.534177	3.600128	0.001591	0.467162
-8.828103	-2.549100	3.610125	0.001565	0.467287
-8.619005	-2.624168	3.620122	0.001527	0.467284
-8.808815	-2.555639	3.630118	0.001561	0.467291
-8.536675	-2.602953	3.640115	0.001511	0.467457
-8.560629	-2.552514	3.650112	0.001515	0.467600
-8.310428	-2.640810	3.660109	0.001470	0.467601
-8.427660	-2.601911	3.670106	0.001491	0.467594
-8.265215	-2.658040	3.680102	0.001461	0.467599
-8.257140	-2.616009	3.690099	0.001460	0.467752
-8.112793	-2.613725	3.700096	0.001434	0.467934
-8.186505	-2.589301	3.710093	0.001447	0.467929
-8.116881	-2.614582	3.720090	0.001434	0.467928
-8.273950	-2.538651	3.730086	0.001462	0.467999
-7.957760	-2.601889	3.740083	0.001405	0.468163
-8.064476	-2.566032	3.750080	0.001424	0.468159
-8.031824	-2.576584	3.760077	0.001418	0.468163
-7.916107	-2.531747	3.770074	0.001397	0.468454
-7.651219	-2.618617	3.780070	0.001349	0.468477
-7.765623	-2.579552	3.790067	0.001369	0.468474
-7.765614	-2.564001	3.800064	0.001369	0.468528
-7.661875	-2.528715	3.810061	0.001350	0.468772
-7.595275	-2.552675	3.820058	0.001338	0.468771
-7.624845	-2.536173	3.830054	0.001343	0.468793
-7.294597	-2.565211	3.840051	0.001283	0.469089
-7.378571	-2.534333	3.850048	0.001298	0.469095
-7.207621	-2.595494	3.860045	0.001267	0.469093
-7.270882	-2.568030	3.870042	0.001278	0.469112
-6.861142	-2.629044	3.880038	0.001204	0.469395
-6.961449	-2.593992	3.890035	0.001222	0.469395
-6.922186	-2.610453	3.900032	0.001215	0.469387
-7.058796	-2.560997	3.910029	0.001239	0.469393
-6.942050	-2.587565	3.920026	0.001218	0.469443
-6.786522	-2.562076	3.930022	0.001190	0.469715
-6.795070	-2.560943	3.940019	0.001191	0.469710
-6.836806	-2.546829	3.950016	0.001198	0.469709
-6.582853	-2.581237	3.960013	0.001152	0.469896
-6.555150	-2.554959	3.970010	0.001147	0.470019
-6.454804	-2.588883	3.980006	0.001129	0.470025
-6.557427	-2.553304	3.990003	0.001147	0.470024
-6.299795	-2.595543	4.000000	0.001100	0.470189
-6.286224	-2.551238	4.009997	0.001098	0.470356
-6.147959	-2.601253	4.019994	0.001073	0.470353
-6.269946	-2.558810	4.029990	0.001094	0.470352
-6.195135	-2.571763	4.039987	0.001081	0.470398
-5.993275	-2.565331	4.049984	0.001044	0.470661
-5.928571	-2.589715	4.059981	0.001032	0.470657
-6.094439	-2.530981	4.069978	0.001062	0.470659
-5.894978	-2.584404	4.079974	0.001026	0.470717
-5.714157	-2.574033	4.089971	0.000993	0.470967
-5.549698	-2.630532	4.099968	0.000963	0.470973
-5.675383	-2.586401	4.109965	0.000985	0.470974
-5.656506	-2.595145	4.119962	0.000982	0.470968
-5.599569	-2.577709	4.129958	0.000971	0.471096
-5.468870	-2.570116	4.139955	0.000948	0.471277
-5.477578	-2.568432	4.149952	0.000949	0.471274
-5.411846	-2.591189	4.159949	0.000937	0.471276
-5.419710	-2.540640	4.169946	0.000938	0.471438
-5.161636	-2.585259	4.179942	0.000891	0.471595
-5.271268	-2.544532	4.189939	0.000911	0.471603
-5.165650	-2.583336	4.199936	0.000892	0.471599
-4.945184	-2.595988	4.209933	0.000852	0.471819
-5.013126	-2.547220	4.219930	0.000864	0.471903
-4.967706	-2.564000	4.229926	0.000855	0.471902
-4.853255	-2.603729	4.239923	0.000834	0.471905
-4.886518	-2.546732	4.249920	0.000840	0.472058
-4.614142	-2.594432	4.259917	0.000791	0.472221
-4.672891	-2.573550	4.269914	0.000801	0.472223
-4.526857	-2.626610	4.279910	0.000775	0.472219
-4.640060	-2.586405	4.289907	0.000795	0.472221
-4.396470	-2.579601	4.299904	0.000751	0.472533
-4.444523	-2.562503	4.309901	0.000759	0.472535
-4.333765	-2.602655	4.319898	0.000739	0.472532
-4.362466	-2.593012	4.329894	0.000744	0.472532
-4.220588	-2.579716	4.339891	0.000718	0.472745
-4.073725	-2.595545	4.349888	0.000692	0.472867
-3.945282	-2.641994	4.359885	0.000668	0.472864
-4.127305	-2.576055	4.369882	0.000701	0.472871
-4.148192	-2.563073	4.379878	0.000704	0.472891
-4.052196	-2.525776	4.389875	0.000687	0.473131
-3.844935	-2.599229	4.399872	0.000649	0.473131
-4.045244	-2.529084	4.409869	0.000685	0.473130
-3.766723	-2.537925	4.419866	0.000635	0.473430
-3.718858	-2.554469	4.429862	0.000626	0.473433
-3.601127	-2.596240	4.439859	0.000604	0.473433
-3.608996	-2.592799	4.449856	0.000606	0.473436
-3.470305	-2.551959	4.459853	0.000580	0.473738
-3.550863	-2.523419	4.469850	0.000595	0.473739
-3.402924	-2.577867	4.479846	0.000568	0.473733
-3.544613	-2.484042	4.489843	0.000593	0.473880
-3.201336	-2.551615	4.499840	0.000531	0.474060
-3.272565	-2.528625	4.509837	0.000544	0.474054
-3.176408	-2.557810	4.519834	0.000526	0.474071
-3.123654	-2.489127	4.529830	0.000516	0.474364
-3.063176	-2.510516	4.539827	0.000505	0.474365
-3.060460	-2.513267	4.549824	0.000505	0.474360
-3.038299	-2.455130	4.559821	0.000500	0.474581
-2.859899	-2.490811	4.569818	0.000468	0.474673
-2.893468	-2.479300	4.579814	0.000474	0.474673
-2.852223	-2.441312	4.589811	0.000466	0.474850
-2.749314	-2.435821	4.599808	0.000447	0.474990
-2.734349	-2.442413	4.609805	0.000445	0.474987
-2.567026	-2.432345	4.619802	0.000414	0.475218
-2.584675	-2.394948	4.629798	0.000417	0.475323
-2.495977	-2.426077	4.639795	0.000401	0.475325
-2.442027	-2.410860	4.649792	0.000391	0.475440
-2.358503	-2.385254	4.659789	0.000376	0.475625
-2.355109	-2.386263	4.669786	0.000375	0.475626
-2.413384	-2.319789	4.679782	0.000385	0.475780
-2.149350	-2.365645	4.689779	0.000337	0.475939
-2.239438	-2.331945	4.699776	0.000353	0.475946
-2.219384	-2.261905	4.709773	0.000350	0.476204
-2.203903	-2.254910	4.719770	0.000347	0.476247
-2.150983	-2.211039	4.729766	0.000337	0.476455
-1.993156	-2.231903	4.739763	0.000308	0.476572
-2.065887	-2.177450	4.749760	0.000321	0.476669
-1.820367	-2.201989	4.759757	0.000277	0.476876
-1.761836	-2.223678	4.769754	0.000266	0.476874
-1.613053	-2.202102	4.779750	0.000239	0.477121
-1.593097	-2.186008	4.789747	0.000235	0.477199
-1.662363	-2.161519	4.799744	0.000247	0.477200
-1.572390	-2.103080	4.809741	0.000231	0.477500
-1.501010	-2.124950	4.819738	0.000218	0.477512
-1.545305	-2.050435	4.829734	0.000226	0.477709
-1.508564	-2.024054	4.839731	0.000219	0.477840
-1.386151	-2.031250	4.849728	0.000196	0.477960
-1.337954	-2.008498	4.859725	0.000188	0.478093
-1.240093	-2.019888	4.869722	0.000170	0.478171
-1.341554	-1.913259	4.879718	0.000188	0.478406
-1.385777	-1.859258	4.889715	0.000196	0.478535
-1.081925	-1.916463	4.899712	0.000141	0.478701
-1.138765	-1.850468	4.909709	0.000151	0.478854
-1.018419	-1.840557	4.919706	0.000129	0.479028
-1.164062	-1.735829	4.929702	0.000155	0.479206
-0.969505	-1.767676	4.939699	0.000119	0.479328
-1.050546	-1.655427	4.949696	0.000134	0.479606
-0.900429	-1.671061	4.959693	0.000107	0.479730
-0.833822	-1.626053	4.969690	0.000094	0.479957
-0.879069	-1.556769	4.979686	0.000102	0.480134
-0.797520	-1.539309	4.989683	0.000087	0.480287
-0.852977	-1.427534	4.999680	0.000097	0.480592
-0.759330	-1.412681	5.009677	0.000080	0.480751
-0.664555	-1.390762	5.019674	0.000063	0.480934
-0.650661	-1.310070	5.029670	0.000060	0.481217
-0.567110	-1.275174	5.039667	0.000045	0.481430
-0.491868	-1.253008	5.049664	0.000031	0.481591
-0.561366	-1.153596	5.059661	0.000043	0.481838
-0.528016	-1.080115	5.069658	0.000037	0.482119
-0.492763	-1.026017	5.079654	0.000031	0.482339
-0.368549	-1.001638	5.089651	0.000008	0.482564
-0.348357	-0.933785	5.099648	0.000004	0.482811
-0.229645	-0.896304	5.109645	-0.000017	0.483072
-0.321389	-0.795119	5.119642	-0.000001	0.483298
-0.282582	-0.732401	5.129638	-0.000008	0.483550
-0.244069	-0.669146	5.139635	-0.000015	0.483802
-0.160804	-0.610262	5.149632	-0.000031	0.484092
-0.104365	-0.556387	5.159629	-0.000041	0.484334
-0.119851	-0.460346	5.169626	-0.000038	0.484631
-0.130414	-0.362954	5.179622	-0.000037	0.484938
-0.082942	-0.283643	5.189619	-0.000046	0.485252
-0.110503	-0.182176	5.199616	-0.000041	0.485553
-0.066004	-0.098010	5.209613	-0.000049	0.485879
-0.021659	-0.013230	5.219610	-0.000057	0.486207
-0.014467	0.092914	5.229606	-0.000059	0.486562
0.000000	0.166910	5.239603	-0.000062	0.486820

-0.075675	0.254636	5.244608	-0.000048	0.487019
0.041577	0.420271	5.249613	-0.000069	0.487692
0.053074	0.679453	5.254618	-0.000071	0.488546
-0.078920	1.112933	5.259622	-0.000048	0.489798
0.011803	1.545540	5.264627	-0.000064	0.491297
0.311351	1.993751	5.269632	-0.000118	0.493078
0.193164	2.668147	5.274637	-0.000097	0.495105
0.287980	3.349545	5.279642	-0.000115	0.497384
0.254756	4.135932	5.284646	-0.000109	0.499843
0.311226	4.979684	5.289651	-0.000119	0.502570
0.603512	5.799432	5.294656	-0.000172	0.505468
0.782834	6.726516	5.299661	-0.000205	0.508558
0.822720	7.768198	5.304666	-0.000212	0.511833
1.083186	8.794117	5.309670	-0.000259	0.515277
1.106664	9.962698	5.314675	-0.000264	0.518879
1.320938	11.124908	5.319680	-0.000303	0.522640
1.316850	12.415592	5.324685	-0.000302	0.526529
1.609084	13.657731	5.329690	-0.000355	0.530556
1.699676	15.019419	5.334694	-0.000372	0.534696
1.933190	16.384173	5.339699	-0.000414	0.538961
1.959368	17.866851	5.344704	-0.000419	0.543324
2.295958	19.285112	5.349709	-0.000480	0.547781
2.337457	20.846295	5.354714	-0.000488	0.552314
2.443558	22.434183	5.359718	-0.000507	0.556951
2.487887	24.074451	5.364723	-0.000516	0.561635
2.746054	25.684021	5.369728	-0.000562	0.566406
2.829911	27.381500	5.374733	-0.000578	0.571210
3.075804	29.067403	5.379738	-0.000622	0.576099
3.101467	30.857199	5.384742	-0.000627	0.581018
3.336768	32.616368	5.389747	-0.000670	0.586013
3.582534	34.385765	5.394752	-0.000715	0.591003
3.572160	36.279368	5.399757	-0.000713	0.596041
3.614078	38.172184	5.404762	-0.000721	0.601083
4.074105	39.957132	5.409766	-0.000804	0.606186
4.002135	41.941739	5.414771	-0.000792	0.611279
4.229911	43.849042	5.419776	-0.000833	0.616401
4.397310	45.796843	5.424781	-0.000864	0.621531
4.326494	47.850755	5.429786	-0.000851	0.626675
4.451257	49.836113	5.434790	-0.000874	0.631777
4.521261	51.872277	5.439795	-0.000887	0.636917
4.749555	53.862257	5.444800	-0.000928	0.642039
4.868997	55.910875	5.449805	-0.000950	0.647171
4.941030	57.980166	5.454810	-0.000963	0.652271
5.193716	60.010569	5.459814	-0.001009	0.657391
5.329788	62.090797	5.464819	-0.001034	0.662493
5.449816	64.197387	5.469824	-0.001056	0.667605
5.659543	66.265313	5.474829	-0.001094	0.672661
5.638044	68.422922	5.479834	-0.001091	0.677699
5.807206	70.522031	5.484838	-0.001122	0.682720
5.977470	72.631359	5.489843	-0.001153	0.687728
6.095616	74.759258	5.494848	-0.001174	0.692701
6.165882	76.918559	5.499853	-0.001187	0.697671
6.237793	79.072974	5.504858	-0.001201	0.702596
6.454615	81.184698	5.509862	-0.001240	0.707506
6.613980	83.317904	5.514867	-0.001269	0.712384
6.738227	85.471190	5.519872	-0.001292	0.717246
6.799049	87.645059	5.524877	-0.001303	0.722072
6.959698	89.800362	5.529882	-0.001332	0.726902
7.122646	91.941247	5.534886	-0.001362	0.731670
7.074898	94.166293	5.539891	-0.001354	0.736430
7.134623	96.347828	5.544896	-0.001365	0.741146
7.349668	98.486538	5.549901	-0.001404	0.745857
7.485982	100.630356	5.554906	-0.001429	0.750492
7.663175	102.778296	5.559910	-0.001461	0.755136
7.675541	104.974120	5.564915	-0.001464	0.759731
7.943503	107.095350	5.569920	-0.001512	0.764330
8.001087	109.272145	5.574925	-0.001523	0.768864
8.027915	111.473884	5.579930	-0.001528	0.773400
7.979812	113.687673	5.584934	-0.001520	0.777881
8.308920	115.778702	5.589939	-0.001580	0.782355
8.323912	117.966338	5.594944	-0.001583	0.786777
8.509329	120.097689	5.599949	-0.001616	0.791181
8.557838	122.279134	5.604954	-0.001625	0.795565
8.761507	124.407010	5.609958	-0.001662	0.799926
8.867639	126.566099	5.614963	-0.001682	0.804258
9.033884	128.699219	5.619968	-0.001712	0.808556
9.045634	130.884022	5.624973	-0.001715	0.812828
9.175898	133.035531	5.629978	-0.001738	0.817093
9.118066	135.245815	5.634982	-0.001728	0.821322
9.302551	137.365014	5.639987	-0.001762	0.825517
9.391718	139.503017	5.644992	-0.001778	0.829664
9.541047	141.631387	5.649997	-0.001806	0.833811
9.649502	143.760109	5.655002	-0.001825	0.837912
9.950013	145.840872	5.660006	-0.001880	0.842028
9.763285	148.076657	5.665011	-0.001847	0.846097
9.846650	150.220211	5.670016	-0.001862	0.850149
10.036784	152.313811	5.675021	-0.001897	0.854159
10.206301	154.426142	5.680026	-0.001927	0.858171
10.236155	156.579086	5.685030	-0.001933	0.862150
10.287150	158.720780	5.690035	-0.001943	0.866104
10.354529	160.849218	5.695040	-0.001955	0.870025
10.399869	162.997398	5.700045	-0.001964	0.873951
10.640857	165.057416	5.705050	-0.002007	0.877824
10.686244	167.205854	5.710054	-0.002016	0.881715
10.496221	169.410336	5.715059	-0.001982	0.885543
10.702829	171.486660	5.720064	-0.002019	0.889373
10.850581	173.576518	5.725069	-0.002046	0.893174
10.961519	175.682813	5.730074	-0.002067	0.896965
11.105938	177.777746	5.735078	-0.002093	0.900740
11.106697	179.930390	5.740083	-0.002093	0.904513
11.171763	182.033658	5.745088	-0.002105	0.908224
11.291163	184.121369	5.750093	-0.002127	0.911925
11.416744	186.208643	5.755098	-0.002150	0.915614
11.544071	188.307148	5.760102	-0.002174	0.919309
11.629895	190.410019	5.765107	-0.002189	0.922972
11.418965	192.601578	5.770112	-0.002152	0.926595
11.658416	194.644703	5.775117	-0.002195	0.930218
11.916761	196.688751	5.780122	-0.002242	0.933840
11.779282	198.851707	5.785126	-0.002217	0.937416
12.148377	200.857463	5.790131	-0.002284	0.941011
11.990602	203.030029	5.795136	-0.002256	0.944564
12.046147	205.125276	5.800141	-0.002267	0.948099
11.960735	207.263190	5.805146	-0.002251	0.951610
12.163302	209.309571	5.810150	-0.002288	0.955122
12.248205	211.391078	5.815155	-0.002304	0.958612
12.299701	213.491662	5.820160	-0.002313	0.962101
12.418723	215.558962	5.825165	-0.002335	0.965562
12.483866	217.647871	5.830170	-0.002347	0.969015
12.642882	219.699205	5.835174	-0.002376	0.972448
12.749355	221.780775	5.840179	-0.002396	0.975888
12.757171	223.888139	5.845184	-0.002397	0.979303
13.007538	225.922468	5.850189	-0.002443	0.982723
12.980824	228.034346	5.855194	-0.002438	0.986102
13.180293	230.081839	5.860198	-0.002475	0.989492
13.023805	232.230914	5.865203	-0.002447	0.992835
13.258009	234.245416	5.870208	-0.002489	0.996168
13.302102	236.327135	5.875213	-0.002498	0.999493
13.467667	238.391139	5.880218	-0.002528	1.002845
13.479691	240.461236	5.885222	-0.002530	1.006111
13.630835	242.518937	5.890227	-0.002558	1.009423
13.584641	244.635153	5.895232	-0.002550	1.012709
13.876294	246.624803	5.900237	-0.002603	1.015970
13.892570	248.729206	5.905242	-0.002606	1.019250
14.059394	250.785020	5.910246	-0.002636	1.022525
13.845137	252.929037	5.915251	-0.002598	1.025721
14.082479	254.942815	5.920256	-0.002641	1.028949
14.141184	257.020691	5.925261	-0.002652	1.032169
14.351449	259.041458	5.930266	-0.002690	1.035373
14.374373	261.130576	5.935270	-0.002695	1.038572
14.464563	263.197121	5.940275	-0.002711	1.041762
14.375331	265.308960	5.945280	-0.002695	1.044917
14.587203	267.335700	5.950285	-0.002734	1.048091
14.517956	269.439239	5.955290	-0.002722	1.051225
14.696712	271.471968	5.960294	-0.002754	1.054372
14.686439	273.558573	5.965299	-0.002753	1.057492
14.836139	275.602020	5.970304	-0.002780	1.060622
14.642427	277.751123	5.975309	-0.002745	1.063723
14.847035	279.749597	5.980314	-0.002782	1.066795
15.003334	281.772612	5.985318	-0.002811	1.069871
14.948382	283.886245	5.990323	-0.002801	1.072963
15.132740	285.887414	5.995328	-0.002835	1.076003
15.174797	287.964762	6.000333	-0.002843	1.079074
15.474810	289.942655	6.005338	-0.002897	1.082121
15.467020	292.029685	6.010342	-0.002896	1.085163
15.706968	294.036022	6.015347	-0.002940	1.088204
15.745968	296.112089	6.020352	-0.002947	1.091237
15.897500	298.133785	6.025357	-0.002975	1.094239
15.821413	300.261015	6.030362	-0.002961	1.097272
15.886095	302.307175	6.035366	-0.002973	1.100250
16.078498	304.347798	6.040371	-0.003008	1.103275
16.227978	306.350299	6.045376	-0.003036	1.106216
16.325244	308.409364	6.050381	-0.003053	1.109204
16.148194	310.558417	6.055386	-0.003022	1.112177
16.405183	312.536942	6.060390	-0.003068	1.115114
16.374403	314.636705	6.065395	-0.003063	1.118073
16.447858	316.694324	6.070400	-0.003077	1.121016
16.344996	318.782121	6.075405	-0.003058	1.123908
16.570749	320.788583	6.080410	-0.003099	1.126837
16.638519	322.824908	6.085414	-0.003112	1.129725
16.747628	324.890046	6.090419	-0.003132	1.132665
16.863417	326.901367	6.095424	-0.003153	1.135526
17.039799	328.945422	6.100429	-0.003185	1.138454
16.986554	331.030437	6.105434	-0.003176	1.141322
17.140611	333.056629	6.110438	-0.003204	1.144200
17.086804	335.132614	6.115443	-0.003195	1.147040
17.241584	337.142482	6.120448	-0.003223	1.149882
17.149928	339.251433	6.125453	-0.003206	1.152736
17.409077	341.221761	6.130458	-0.003254	1.155558
17.370377	343.310491	6.135462	-0.003247	1.158396
17.531089	345.340942	6.140467	-0.003276	1.161240
17.444036	347.412333	6.145472	-0.003261	1.164017
17.717215	349.403849	6.150477	-0.003310	1.166848
17.677745	351.471083	6.155482	-0.003303	1.169628
17.906801	353.483055	6.160486	-0.003345	1.172452
18.155313	355.452570	6.165491	-0.003390	1.175221
18.019403	357.587182	6.170496	-0.003366	1.178028
18.195435	359.599744	6.175501	-0.003398	1.180808
18.538708	361.563160	6.180506	-0.003460	1.183593
18.411690	363.667416	6.185510	-0.003438	1.186343
18.616306	365.676778	6.190515	-0.003475	1.189113
18.516727	367.791901	6.195520	-0.003457	1.191877
18.699890	369.787457	6.200525	-0.003491	1.194606
18.749419	371.848010	6.205530	-0.003500	1.197353
18.961866	373.849973	6.210534	-0.003538	1.200091
18.769065	375.991846	6.215539	-0.003504	1.202823
19.018613	377.967179	6.220544	-0.003549	1.205531
19.142953	379.996542	6.225549	-0.003572	1.208246
19.195926	382.051615	6.230554	-0.003582	1.210957
19.339649	384.061262	6.235558	-0.003608	1.213643
19.459132	386.109258	6.240563	-0.003630	1.216362
19.516870	388.154251	6.245568	-0.003641	1.219044
19.653252	390.199245	6.250573	-0.003666	1.221755
19.713286	392.212971	6.255578	-0.003677	1.224386
20.005830	394.209098	6.260582	-0.003730	1.227091
19.960557	396.268811	6.265587	-0.003722	1.229723
20.123845	398.302314	6.270592	-0.003752	1.232407
20.279353	400.307216	6.275597	-0.003780	1.235046
20.303828	402.399024	6.280602	-0.003785	1.237733
20.392765	404.432225	6.285606	-0.003801	1.240367
20.453930	406.486519	6.290611	-0.003812	1.243010
20.421239	408.545553	6.295616	-0.003807	1.245613
20.723053	410.519767	6.300621	-0.003862	1.248248
20.834436	412.562464	6.305626	-0.003882	1.250882
20.990372	414.575924	6.310630	-0.003910	1.253492
20.878767	416.686386	6.315635	-0.003891	1.256104
21.154107	418.661636	6.320640	-0.003941	1.258707
21.234398	420.713827	6.325645	-0.003955	1.261318
21.264741	422.752501	6.330650	-0.003961	1.263884
21.321368	424.799223	6.335654	-0.003972	1.266467
21.331368	426.861366	6.340659	-0.003974	1.269044
21.347830	428.923490	6.345664	-0.003977	1.271618
21.485458	430.915903	6.350669	-0.004002	1.274152
21.416585	433.013400	6.355674	-0.003990	1.276724
21.773308	434.953599	6.360678	-0.004055	1.279276
21.677449	437.050506	6.365683	-0.004038	1.281825
21.664525	439.092667	6.370688	-0.004035	1.284337
21.699103	441.146140	6.375693	-0.004042	1.286878
21.952393	443.114427	6.380698	-0.004088	1.289401
21.906390	445.189055	6.385702	-0.004080	1.291924
21.943571	447.232889	6.390707	-0.004087	1.294439
22.027411	449.262480	6.395712	-0.004102	1.296951
22.086711	451.302017	6.400717	-0.004113	1.299460
22.189686	453.325611	6.405722	-0.004132	1.301963
22.278551	455.360572	6.410726	-0.004149	1.304470
22.192223	457.439858	6.415731	-0.004133	1.306953
22.384829	459.410413	6.420736	-0.004168	1.309414
22.366179	461.472024	6.425741	-0.004165	1.311894
22.513384	463.468715	6.430746	-0.004192	1.314360
22.503740	465.524939	6.435750	-0.004191	1.316827
22.679971	467.516311	6.440755	-0.004223	1.319289
22.502798	469.626630	6.445760	-0.004191	1.321744
22.546497	471.642455	6.450765	-0.004199	1.324172
22.687397	473.650333	6.455770	-0.004225	1.326625
22.867976	475.630787	6.460774	-0.004258	1.329057
22.945350	477.663269	6.465779	-0.004272	1.331505
23.080480	479.659183	6.470784	-0.004297	1.333928
23.130267	481.701108	6.475789	-0.004306	1.336366
23.368242	483.681731	6.480794	-0.004349	1.338804
23.310770	485.774237	6.485798	-0.004339	1.341250
23.495012	487.734970	6.490803	-0.004373	1.343634
23.633448	489.754120	6.495808	-0.004398	1.346064
23.721230	491.782424	6.500813	-0.004414	1.348480
23.776519	493.826429	6.505818	-0.004424	1.350897
23.843694	495.872090	6.510822	-0.004437	1.353317
23.770689	497.946840	6.515827	-0.004424	1.355710
23.878034	499.967560	6.520832	-0.004444	1.358108
23.936476	502.001052	6.525837	-0.004454	1.360497
24.057040	504.004638	6.530842	-0.004476	1.362871
24.018739	506.061686	6.535846	-0.004470	1.365241
24.066017	508.098698	6.540851	-0.004479	1.367617
24.183898	510.103501	6.545856	-0.004500	1.369980
24.310279	512.126701	6.550861	-0.004523	1.372363
24.370792	514.146457	6.555866	-0.004534	1.374712
24.383675	516.212279	6.560870	-0.004537	1.377091
24.459190	518.224710	6.565875	-0.004551	1.379430
24.491238	520.277755	6.570880	-0.004557	1.381794
24.509687	522.281025	6.575885	-0.004561	1.384092
24.610624	524.319275	6.580890	-0.004579	1.386458
24.645419	526.319801	6.585894	-0.004586	1.388751
24.824284	528.335267	6.590899	-0.004618	1.391114
24.852444	530.346739	6.595904	-0.004624	1.393409
25.209864	532.309507	6.600909	-0.004688	1.395772
25.521293	534.249229	6.605914	-0.004745	1.398088
25.580586	536.331215	6.610918	-0.004756	1.400464
25.601930	538.350170	6.615923	-0.004760	1.402750
26.053733	540.293859	6.620928	-0.004842	1.405112
25.963362	542.380821	6.625933	-0.004826	1.407424
26.220864	544.383577	6.630938	-0.004873	1.409771
26.292060	546.415977	6.635942	-0.004886	1.412076
26.562750	548.405006	6.640947	-0.004935	1.414404
26.560919	550.485880	6.645952	-0.004935	1.416728
26.936720	552.430741	6.650957	-0.005003	1.419039
26.950045	554.503904	6.655962	-0.005006	1.421353
27.153973	556.482796	6.660966	-0.005043	1.423629
27.064886	558.603461	6.665971	-0.005027	1.425949
27.021927	560.670712	6.670976	-0.005020	1.428224
27.006633	562.736091	6.675981	-0.005017	1.430503
27.260918	564.697277	6.680986	-0.005063	1.432765
27.186466	566.778064	6.685990	-0.005050	1.435032
27.173871	568.838726	6.690995	-0.005048	1.437296
27.157638	570.884960	6.696000	-0.005046	1.439539
27.369165	572.870620	6.701005	-0.005084	1.441797
27.257543	574.925328	6.706010	-0.005064	1.444008
27.462252	576.923558	6.711014	-0.005101	1.446270
27.399995	578.966371	6.716019	-0.005090	1.448479
27.705352	580.937675	6.721024	-0.005146	1.450742
27.582850	582.995367	6.726029	-0.005124	1.452938
28.010942	584.927108	6.731034	-0.005202	1.455196
27.992423	586.976673	6.736038	-0.005199	1.457415
28.330496	588.941720	6.741043	-0.005260	1.459669
28.422927	590.957595	6.746048	-0.005277	1.461885
28.515164	592.997898	6.751053	-0.005294	1.464124
28.578761	595.033115	6.756058	-0.005306	1.466344
28.844996	596.996420	6.761062	-0.005354	1.468557
28.808256	599.076299	6.766067	-0.005348	1.470781
29.083289	601.037643	6.771072	-0.005398	1.472988
28.917466	603.160104	6.776077	-0.005368	1.475205
29.099899	605.151504	6.781082	-0.005401	1.477404
29.193121	607.185907	6.786086	-0.005418	1.479613
29.210214	609.239612	6.791091	-0.005422	1.481812
29.477836	611.188616	6.796096	-0.005470	1.483987
29.448045	613.272470	6.801101	-0.005465	1.486195
29.621224	615.247820	6.806106	-0.005497	1.488357
29.699316	617.305630	6.811110	-0.005511	1.490570
29.700922	619.321766	6.816115	-0.005512	1.492708
30.159249	621.254102	6.821120	-0.005595	1.494917
30.158438	623.310359	6.826125	-0.005595	1.497090
30.260544	625.359600	6.831130	-0.005614	1.499289
30.151314	627.426871	6.836134	-0.005594	1.501429
30.367538	629.392895	6.841139	-0.005633	1.503574
30.285092	631.481755	6.846144	-0.005619	1.505740
30.343824	633.494705	6.851149	-0.005630	1.507873
30.326905	635.557215	6.856154	-0.005627	1.510029
30.499730	637.531676	6.861158	-0.005658	1.512156
30.597570	639.547146	6.866163	-0.005676	1.514296
30.601639	641.606108	6.871168	-0.005677	1.516446
30.674635	643.622729	6.876173	-0.005691	1.518573
30.906850	645.613651	6.881178	-0.005733	1.520726
30.826153	647.635802	6.886182	-0.005719	1.522799
31.004661	649.663847	6.891187	-0.005751	1.524965
30.917436	651.707170	6.896192	-0.005736	1.527052
31.077595	653.722635	6.901197	-0.005765	1.529193
31.050723	655.762705	6.906202	-0.005760	1.531292
31.326731	657.716627	6.911206	-0.005810	1.533404
31.231031	659.800470	6.916211	-0.005793	1.535518
31.547780	661.734977	6.921216	-0.005851	1.537618
31.418240	663.841468	6.926221	-0.005828	1.539738
31.661102	665.786232	6.931226	-0.005872	1.541818
31.826493	667.768045	6.936230	-0.005902	1.543906
32.180495	669.725529	6.941235	-0.005966	1.546031
32.227810	671.749137	6.946240	-0.005975	1.548115
32.533614	673.746908	6.951245	-0.006031	1.550259
32.550316	675.765253	6.956250	-0.006034	1.552322
32.521208	677.881652	6.961254	-0.006029	1.554466
32.655395	679.878606	6.966259	-0.006054	1.556542
32.877901	681.873092	6.971264	-0.006094	1.558642
32.960926	683.899993	6.976269	-0.006109	1.560725
32.871472	685.975704	6.981274	-0.006093	1.562796
32.954571	687.996782	6.986278	-0.006109	1.564868
33.175653	689.962486	6.991283	-0.006149	1.566928
33.211599	692.027452	6.996288	-0.006156	1.569022
33.218193	694.078523	7.001293	-0.006157	1.571090
33.514074	696.003661	7.006298	-0.006211	1.573126
33.455955	698.120874	7.011302	-0.006201	1.575233
33.411718	700.145279	7.016307	-0.006193	1.577248
33.652504	702.140395	7.021312	-0.006237	1.579328
33.472263	704.201912	7.026317	-0.006204	1.581330
33.702757	706.164602	7.031322	-0.006246	1.583368
33.633550	708.239848	7.036326	-0.006234	1.585416
33.600545	710.271431	7.041331	-0.006228	1.587430
33.748615	712.279391	7.046336	-0.006255	1.589478
33.867864	714.258981	7.051341	-0.006277	1.591485
33.827963	716.316977	7.056346	-0.006270	1.593515
34.032380	718.291756	7.061350	-0.006307	1.595541
34.072006	720.320901	7.066355	-0.006315	1.597564
34.310009	722.301179	7.071360	-0.006358	1.599601
34.291646	724.328236	7.076365	-0.006355	1.601598
34.543430	726.305488	7.081370	-0.006401	1.603631
34.660978	728.322410	7.086374	-0.006422	1.605657
34.893516	730.284545	7.091379	-0.006465	1.607665
34.699663	732.433967	7.096384	-0.006430	1.609714
35.025200	734.348822	7.101389	-0.006489	1.611700
35.093173	736.393043	7.106394	-0.006502	1.613726
35.039708	738.472849	7.111398	-0.006492	1.615745
34.988456	740.524296	7.116403	-0.006483	1.617735
35.131301	742.544974	7.121408	-0.006509	1.619755
35.308365	744.486662	7.126413	-0.006541	1.621707
35.304522	746.561507	7.131418	-0.006541	1.623727
35.341856	748.574276	7.136422	-0.006548	1.625698
35.482270	750.567254	7.141427	-0.006574	1.627680
35.746959	752.532613	7.146432	-0.006622	1.629674
35.688237	754.578003	7.151437	-0.006611	1.631638
35.745283	756.602944	7.156442	-0.006622	1.633617
35.884793	758.617834	7.161446	-0.006648	1.635611
35.763968	760.676633	7.166451	-0.006626	1.637561
35.829766	762.722917	7.171456	-0.006638	1.639557
35.811798	764.713959	7.176461	-0.006635	1.641470
35.873537	766.739440	7.181466	-0.006647	1.643439
36.028667	768.730510	7.186470	-0.006675	1.645403
36.083691	770.742492	7.191475	-0.006685	1.647353
36.243738	772.731760	7.196480	-0.006714	1.649312
36.383440	774.734176	7.201485	-0.006740	1.651275
36.375812	776.770905	7.206490	-0.006739	1.653222
36.615288	778.760759	7.211494	-0.006782	1.655200
36.582571	780.782229	7.216499	-0.006777	1.657119
36.734668	782.809581	7.221504	-0.006804	1.659100
36.820580	784.789006	7.226509	-0.006820	1.661013
36.633592	786.897886	7.231514	-0.006787	1.662959
36.868132	788.852321	7.236518	-0.006829	1.664891
37.005663	790.842137	7.241523	-0.006854	1.666823
37.071190	792.871017	7.246528	-0.006866	1.668767
37.089909	794.904531	7.251533	-0.006870	1.670698
36.999873	796.960956	7.256538	-0.006854	1.672614
37.065592	799.002856	7.261542	-0.006866	1.674564
37.271383	800.945708	7.266547	-0.006904	1.676462
37.284050	803.013526	7.271552	-0.006906	1.678414
37.265458	805.024476	7.276557	-0.006903	1.680302
37.380597	807.011918	7.281562	-0.006924	1.682207
37.424751	809.050912	7.286566	-0.006932	1.684136
37.363531	811.104032	7.291571	-0.006922	1.686043
37.510511	813.083649	7.296576	-0.006949	1.687944
37.636357	815.097964	7.301581	-0.006972	1.689868
37.832907	817.032805	7.306586	-0.007007	1.691739
37.826725	819.115430	7.311590	-0.007006	1.693682
37.820428	821.149412	7.316595	-0.007006	1.695577
37.920448	823.156340	7.321600	-0.007024	1.697478
37.881515	825.215633	7.326605	-0.007017	1.699383
38.000704	827.158282	7.331610	-0.007039	1.701226
38.150729	829.155909	7.336614	-0.007066	1.703128
38.365107	831.142528	7.341619	-0.007105	1.705037
38.473153	833.123663	7.346624	-0.007125	1.706906
38.581773	835.166733	7.351629	-0.007145	1.708831
38.658463	837.169381	7.356634	-0.007159	1.710706
38.814120	839.173904	7.361638	-0.007188	1.712605
38.854448	841.219370	7.366643	-0.007195	1.714504
38.805111	843.260968	7.371648	-0.007186	1.716371
38.855185	845.302297	7.376653	-0.007196	1.718265
39.001098	847.296924	7.381658	-0.007222	1.720144
39.090194	849.272698	7.386662	-0.007239	1.721986
39.329791	851.271663	7.391667	-0.007282	1.723893
39.191784	853.338616	7.396672	-0.007258	1.725745
39.355642	855.332301	7.401677	-0.007288	1.727620
39.529783	857.327377	7.406682	-0.007319	1.729498
39.698890	859.301407	7.411686	-0.007350	1.731352
39.894292	861.301943	7.416691	-0.007386	1.733237
40.005522	863.334544	7.421696	-0.007406	1.735124
39.966046	865.385240	7.426701	-0.007399	1.736979
40.222179	867.385445	7.431706	-0.007446	1.738876
40.060916	869.441384	7.436710	-0.007417	1.740695
40.302201	871.403503	7.441715	-0.007461	1.742549
40.266290	873.471905	7.446720	-0.007455	1.744413
40.503693	875.414698	7.451725	-0.007498	1.746244
40.393040	877.510155	7.456730	-0.007478	1.748107
40.531270	879.512916	7.461734	-0.007503	1.749958
40.761554	881.456407	7.466739	-0.007545	1.751782
40.963923	883.471362	7.471744	-0.007582	1.753660
41.000391	885.495471	7.476749	-0.007589	1.755494
41.204946	887.490542	7.481754	-0.007626	1.757351
41.112185	889.579790	7.486758	-0.007610	1.759201
41.295273	891.534518	7.491763	-0.007643	1.761011
41.242416	893.598829	7.496768	-0.007634	1.762848
41.550726	895.556761	7.501773	-0.007690	1.764694
41.563567	897.583563	7.506778	-0.007692	1.766512
41.710981	899.622787	7.511782	-0.007719	1.768380
41.609514	901.678177	7.516787	-0.007701	1.770186
41.761479	903.670203	7.521792	-0.007729	1.772009
41.872345	905.688093	7.526797	-0.007749	1.773841
41.931382	907.711395	7.531802	-0.007760	1.775660
42.014303	909.725218	7.536806	-0.007775	1.777477
42.081252	911.763986	7.541811	-0.007788	1.779308
42.147160	913.706371	7.546816	-0.007800	1.781052
42.327847	915.722289	7.551821	-0.007833	1.782894
42.255102	917.774019	7.556826	-0.007820	1.784691
42.559832	919.716534	7.561830	-0.007875	1.786499
42.587452	921.750001	7.566835	-0.007880	1.788306
42.730322	923.753497	7.571840	-0.007906	1.790117
42.747613	925.793458	7.576845	-0.007910	1.791923
43.021937	927.769073	7.581850	-0.007960	1.793745
42.927724	929.818957	7.586854	-0.007943	1.795523
43.183332	931.801915	7.591859	-0.007989	1.797342
43.118559	933.870654	7.596864	-0.007978	1.799141
43.248543	935.843754	7.601869	-0.008002	1.800912
43.248691	937.899239	7.606874	-0.008002	1.802715
43.343572	939.914848	7.611878	-0.008019	1.804509
43.303439	941.934917	7.616883	-0.008012	1.806266
43.495620	943.947136	7.621888	-0.008047	1.808081
43.555722	945.931528	7.626893	-0.008059	1.809833
43.561658	947.974901	7.631898	-0.008060	1.811618
43.546126	950.023963	7.636902	-0.008057	1.813401
43.761050	951.990860	7.641907	-0.008096	1.815176
43.681499	954.030578	7.646912	-0.008082	1.816928
43.841725	956.054867	7.651917	-0.008112	1.818735
43.896335	958.006339	7.656922	-0.008122	1.820445
44.097450	959.998714	7.661926	-0.008158	1.822232
44.077443	962.057099	7.666931	-0.008155	1.824011
44.086334	964.059825	7.671936	-0.008157	1.825748
44.091133	966.097937	7.676941	-0.008158	1.827513
44.196522	968.102751	7.681946	-0.008177	1.829276
44.297337	970.083920	7.686950	-0.008196	1.831016
44.422302	972.105229	7.691955	-0.008219	1.832796
44.534482	974.106305	7.696960	-0.008239	1.834552
44.662710	976.118213	7.701965	-0.008263	1.836321
44.639225	978.168749	7.706970	-0.008259	1.838079
44.906724	980.105034	7.711974	-0.008307	1.839819
44.754827	982.170944	7.716979	-0.008280	1.841550
44.808722	984.208234	7.721984	-0.008290	1.843313
44.839393	986.219048	7.726989	-0.008296	1.845045
45.028642	988.194794	7.731994	-0.008330	1.846790
45.039553	990.249700	7.736998	-0.008333	1.848551
45.386849	992.146546	7.742003	-0.008396	1.850270
45.260338	994.234751	7.747008	-0.008373	1.852017
45.378812	996.267129	7.752013	-0.008395	1.853784
45.467206	998.244479	7.757018	-0.008411	1.855494
45.598652	1000.281094	7.762022	-0.008435	1.857265
45.651354	1002.293040	7.767027	-0.008445	1.858991
45.833021	1004.221914	7.772032	-0.008478	1.860681
46.078305	1006.230701	7.777037	-0.008522	1.862455
46.298182	1008.217434	7.782042	-0.008562	1.864201
46.352004	1010.225391	7.787046	-0.008572	1.865918
46.585631	1012.232690	7.792051	-0.008615	1.867682
46.621602	1014.252334	7.797056	-0.008622	1.869401
46.661956	1016.297916	7.802061	-0.008629	1.871141
46.761301	1018.319418	7.807066	-0.008647	1.872875
46.921418	1020.331614	7.812070	-0.008677	1.874616
46.792418	1022.403439	7.817075	-0.008654	1.876327
46.838144	1024.456016	7.822080	-0.008662	1.878068
46.910363	1026.424224	7.827085	-0.008675	1.879743
47.116242	1028.402462	7.832090	-0.008713	1.881462
47.374294	1030.376290	7.837094	-0.008760	1.883191
47.546840	1032.355275	7.842099	-0.008791	1.884898
47.579836	1034.413685	7.847104	-0.008797	1.886633
47.704095	1036.435914	7.852109	-0.008820	1.888360
47.703340	1038.430773	7.857114	-0.008820	1.890029
47.921274	1040.432799	7.862118	-0.008860	1.891762
47.872938	1042.518463	7.867123	-0.008852	1.893490
48.029208	1044.490017	7.872128	-0.008880	1.895178
48.094576	1046.525730	7.877133	-0.008892	1.896893
48.084856	1048.576621	7.882138	-0.008891	1.898598
48.178775	1050.506860	7.887142	-0.008908	1.900230
48.139901	1052.591555	7.892147	-0.008901	1.901952
48.235483	1054.594297	7.897152	-0.008919	1.903642
48.122641	1056.651937	7.902157	-0.008899	1.905319
48.287022	1058.630335	7.907162	-0.008928	1.907004
48.454116	1060.623611	7.912166	-0.008959	1.908700
48.357322	1062.644385	7.917171	-0.008942	1.910347
48.463267	1064.664836	7.922176	-0.008961	1.912046
48.453321	1066.702679	7.927181	-0.008960	1.913727
48.576367	1068.678059	7.932186	-0.008982	1.915391
48.526953	1070.733112	7.937190	-0.008973	1.917073
48.705161	1072.712592	7.942195	-0.009006	1.918752
48.805847	1074.644444	7.947200	-0.009024	1.920370
49.052387	1076.665906	7.952205	-0.009069	1.922099
48.943674	1078.726183	7.957210	-0.009050	1.923763
49.083998	1080.704268	7.962214	-0.009075	1.925425
49.076687	1082.771501	7.967219	-0.009074	1.927119
49.269055	1084.745112	7.972224	-0.009109	1.928788
49.303840	1086.738538	7.977229	-0.009116	1.930430
49.398490	1088.776366	7.982234	-0.009133	1.932123
49.410557	1090.799204	7.987238	-0.009136	1.933780
49.461515	1092.819130	7.992243	-0.009145	1.935444
49.740569	1094.781379	7.997248	-0.009196	1.937120
49.691590	1096.836076	8.002253	-0.009187	1.938783
49.716243	1098.837087	8.007258	-0.009192	1.940420
49.832770	1100.856474	8.012262	-0.009213	1.942095
49.988427	1102.831876	8.017267	-0.009242	1.943743
49.996741	1104.848362	8.022272	-0.009244	1.945384
49.920273	1106.911091	8.027277	-0.009230	1.947039
49.947593	1108.937128	8.032282	-0.009235	1.948690
49.981034	1110.903562	8.037286	-0.009242	1.950293
50.244002	1112.883087	8.042291	-0.009289	1.951965
50.273752	1114.914079	8.047296	-0.009295	1.953617
50.549998	1116.829299	8.052301	-0.009345	1.955238
50.564528	1118.915656	8.057306	-0.009348	1.956928
50.643904	1120.925454	8.062310	-0.009363	1.958571
50.677096	1122.904747	8.067315	-0.009369	1.960176
50.904896	1124.898728	8.072320	-0.009410	1.961843
50.741888	1127.000446	8.077325	-0.009381	1.963493
50.818930	1128.965248	8.082330	-0.009395	1.965094
51.205581	1130.911062	8.087334	-0.009466	1.966759
51.255015	1132.957594	8.092339	-0.009475	1.968416
51.616187	1134.858231	8.097344	-0.009540	1.970035
51.764144	1136.891203	8.102349	-0.009567	1.971704
51.868706	1138.932840	8.107354	-0.009586	1.973367
51.872651	1140.975953	8.112358	-0.009587	1.975003
51.896781	1143.027287	8.117363	-0.009592	1.976650
51.901960	1145.059136	8.122368	-0.009593	1.978275
51.777260	1147.084177	8.127373	-0.009571	1.979860
52.093078	1149.032949	8.132378	-0.009628	1.981497
52.092774	1151.087442	8.137382	-0.009628	1.983135
52.157156	1153.061269	8.142387	-0.009640	1.984724
52.165942	1155.115178	8.147392	-0.009642	1.986361
52.345015	1157.118277	8.152397	-0.009675	1.988000
52.535333	1159.039258	8.157402	-0.009710	1.989575
52.472509	1161.117902	8.162406	-0.009698	1.991210
52.600729	1163.147489	8.167411	-0.009722	1.992853
52.695360	1165.121125	8.172416	-0.009739	1.994442
52.585832	1167.213042	8.177421	-0.009720	1.996070
52.752330	1169.203329	8.182426	-0.009750	1.997688
52.595711	1171.222209	8.187430	-0.009722	1.999244
52.837134	1173.189899	8.192435	-0.009766	2.000861
53.047279	1175.151400	8.197440	-0.009804	2.002463
53.077789	1177.195713	8.202445	-0.009810	2.004084
53.081304	1179.236764	8.207450	-0.009811	2.005694
53.076038	1181.279325	8.212454	-0.009810	2.007301
53.102484	1183.290429	8.217459	-0.009815	2.008890
53.250804	1185.264069	8.222464	-0.009842	2.010480
53.036091	1187.371962	8.227469	-0.009804	2.012082
53.138652	1189.356276	8.232474	-0.009823	2.013666
53.421359	1191.278308	8.237478	-0.009874	2.015245
53.311308	1193.363315	8.242483	-0.009854	2.016852
53.200937	1195.412960	8.247488	-0.009835	2.018429
53.321112	1197.345685	8.252493	-0.009857	2.019972
53.451200	1199.343622	8.257498	-0.009880	2.021567
53.456191	1201.373647	8.262502	-0.009882	2.023155
53.583203	1203.325407	8.267507	-0.009905	2.024711
53.653722	1205.349823	8.272512	-0.009918	2.026308
53.668743	1207.397206	8.277517	-0.009921	2.027908
53.702461	1209.370197	8.282522	-0.009927	2.029453
53.767733	1211.409344	8.287526	-0.009939	2.031057
53.994974	1213.379116	8.292531	-0.009981	2.032646
53.958375	1215.383900	8.297536	-0.009974	2.034195
54.166150	1217.383661	8.302541	-0.010012	2.035800
54.345159	1219.381280	8.307546	-0.010045	2.037395
54.494189	1221.343275	8.312550	-0.010072	2.038953
54.740893	1223.323866	8.317555	-0.010117	2.040549
54.597177	1225.435159	8.322560	-0.010091	2.042148
54.800611	1227.388959	8.327565	-0.010128	2.043710
54.900210	1229.394807	8.332570	-0.010146	2.045285
55.053717	1231.413352	8.337574	-0.010174	2.046882
55.100595	1233.436764	8.342579	-0.010183	2.048456
55.124505	1235.458017	8.347584	-0.010188	2.050020
55.158000	1237.510361	8.352589	-0.010194	2.051610
55.226629	1239.515860	8.357594	-0.010207	2.053171
55.420060	1241.480839	8.362598	-0.010242	2.054731
55.486836	1243.521729	8.367603	-0.010254	2.056316
55.534372	1245.542972	8.372608	-0.010263	2.057881
55.384650	1247.547147	8.377613	-0.010236	2.059382
55.588667	1249.546655	8.382618	-0.010273	2.060966
55.481151	1251.628788	8.387622	-0.010254	2.062536
55.698013	1253.536193	8.392627	-0.010294	2.064050
55.892673	1255.534869	8.397632	-0.010329	2.065627
55.781628	1257.618070	8.402637	-0.010309	2.067193
55.830276	1259.613172	8.407642	-0.010318	2.068730
55.977094	1261.594938	8.412646	-0.010345	2.070279
56.181442	1263.584077	8.417651	-0.010382	2.071847
56.280192	1265.602019	8.422656	-0.010400	2.073409
56.390412	1267.595275	8.427661	-0.010421	2.074955
56.432740	1269.634055	8.432666	-0.010428	2.076517
56.460569	1271.653796	8.437670	-0.010434	2.078061
56.736169	1273.569257	8.442675	-0.010484	2.079584
56.611294	1275.679776	8.447680	-0.010462	2.081157
56.816034	1277.654993	8.452685	-0.010499	2.082706
56.802458	1279.678054	8.457690	-0.010497	2.084237
56.791431	1281.732688	8.462694	-0.010495	2.085791
56.817646	1283.768425	8.467699	-0.010500	2.087339
56.813618	1285.742138	8.472704	-0.010499	2.088832
57.190302	1287.673203	8.477709	-0.010568	2.090384
57.279473	1289.699232	8.482714	-0.010584	2.091936
57.297946	1291.731716	8.487718	-0.010588	2.093475
57.449910	1293.710617	8.492723	-0.010616	2.095005
57.601288	1295.729730	8.497728	-0.010643	2.096564
57.839744	1297.679736	8.502733	-0.010686	2.098091
57.803968	1299.697909	8.507738	-0.010680	2.099602
58.032394	1301.695829	8.512742	-0.010722	2.101160
58.114951	1303.735057	8.517747	-0.010737	2.102713
58.199104	1305.724165	8.522752	-0.010752	2.104227
58.315305	1307.756048	8.527757	-0.010774	2.105781
58.306575	1309.819550	8.532762	-0.010772	2.107326
58.450638	1311.767843	8.537766	-0.010799	2.108821
58.394588	1313.834697	8.542771	-0.010789	2.110356
58.600073	1315.824813	8.547776	-0.010826	2.111895
58.770259	1317.801456	8.552781	-0.010857	2.113414
58.662013	1319.878225	8.557786	-0.010838	2.114940
58.714752	1321.914902	8.562791	-0.010848	2.116474
58.827917	1323.885999	8.567795	-0.010869	2.117972
58.786789	1325.878646	8.572800	-0.010861	2.119448
58.703881	1327.961070	8.577805	-0.010847	2.120980
59.052780	1329.890312	8.582810	-0.010910	2.122500
59.416348	1331.797676	8.587815	-0.010976	2.124006
59.408337	1333.866019	8.592819	-0.010975	2.125542
59.751324	1335.841350	8.597824	-0.011037	2.127092
59.728489	1337.849523	8.602829	-0.011033	2.128578
59.970112	1339.837802	8.607834	-0.011077	2.130110
60.014753	1341.888940	8.612839	-0.011085	2.131642
59.963149	1343.943275	8.617843	-0.011076	2.133152
60.314785	1345.865623	8.622848	-0.011140	2.134658
60.269469	1347.965163	8.627853	-0.011132	2.136201
60.509428	1349.919214	8.632858	-0.011176	2.137703
60.472608	1351.935104	8.637863	-0.011169	2.139184
60.572951	1353.950405	8.642867	-0.011188	2.140695
60.718743	1355.981210	8.647872	-0.011214	2.142228
60.729044	1357.969977	8.652877	-0.011217	2.143697
60.973859	1359.958084	8.657882	-0.011261	2.145219
60.880979	1362.049638	8.662887	-0.011245	2.146737
60.953411	1364.039739	8.667891	-0.011258	2.148218
61.031410	1366.028608	8.672896	-0.011272	2.149699
61.043895	1368.079542	8.677901	-0.011275	2.151209
61.018695	1370.109708	8.682906	-0.011271	2.152694
61.163902	1372.080052	8.687911	-0.011297	2.154173
61.215999	1374.115384	8.692915	-0.011307	2.155678
61.248785	1376.148513	8.697920	-0.011313	2.157175
61.279236	1378.095081	8.702925	-0.011319	2.158607
61.297336	1380.133118	8.707930	-0.011322	2.160103
61.336418	1382.178693	8.712935	-0.011330	2.161608
61.664510	1384.087354	8.717939	-0.011389	2.163079
61.802308	1386.069014	8.722944	-0.011414	2.164558
61.836776	1388.125685	8.727949	-0.011421	2.166066
61.857084	1390.160045	8.732954	-0.011425	2.167555
62.140328	1392.080057	8.737959	-0.011476	2.169019
62.324216	1394.105184	8.742963	-0.011510	2.170537
62.342337	1396.155424	8.747968	-0.011513	2.172033
62.510725	1398.121619	8.752973	-0.011544	2.173502
62.374195	1400.234047	8.757978	-0.011520	2.175005
62.410018	1402.252132	8.762983	-0.011526	2.176479
62.666786	1404.164645	8.767987	-0.011573	2.177926
62.671555	1406.177702	8.772992	-0.011574	2.179387
62.744736	1408.225497	8.777997	-0.011588	2.180888
62.745423	1410.252948	8.783002	-0.011588	2.182356
62.873724	1412.224963	8.788007	-0.011611	2.183813
62.865220	1414.267350	8.793011	-0.011610	2.185288
63.007901	1416.282888	8.798016	-0.011636	2.186778
62.959841	1418.266037	8.803021	-0.011628	2.188199
63.094066	1420.267771	8.808026	-0.011652	2.189674
63.116154	1422.304396	8.813031	-0.011657	2.191148
63.325980	1424.278800	8.818035	-0.011695	2.192620
63.230150	1426.300827	8.823040	-0.011678	2.194054
63.329618	1428.341465	8.828045	-0.011696	2.195546
63.434712	1430.341788	8.833050	-0.011715	2.197009
63.453974	1432.304498	8.838055	-0.011719	2.198424
63.552293	1434.319872	8.843059	-0.011737	2.199895
63.411470	1436.419562	8.848064	-0.011712	2.201370
63.647957	1438.338727	8.853069	-0.011755	2.202801
63.706938	1440.345863	8.858074	-0.011766	2.204253
63.702120	1442.412959	8.863079	-0.011765	2.205733
63.696431	1444.438753	8.868083	-0.011764	2.207182
63.830070	1446.354428	8.873088	-0.011789	2.208584
64.087144	1448.361023	8.878093	-0.011835	2.210077
64.203820	1450.371872	8.883098	-0.011857	2.211540
64.075813	1452.427179	8.888103	-0.011834	2.212979
64.098031	1454.459536	8.893107	-0.011838	2.214435
64.211258	1456.458894	8.898112	-0.011859	2.215886
64.424769	1458.388570	8.903117	-0.011898	2.217310
64.225145	1460.453412	8.908122	-0.011862	2.218735
64.272583	1462.467512	8.913127	-0.011871	2.220180
64.592566	1464.427928	8.918131	-0.011929	2.221647
64.602996	1466.416683	8.923136	-0.011931	2.223063
64.657645	1468.450065	8.928141	-0.011941	2.224520
64.719472	1470.475923	8.933146	-0.011953	2.225972
64.675279	1472.527248	8.938151	-0.011945	2.227417
64.778607	1474.467747	8.943155	-0.011964	2.228816
64.888631	1476.531011	8.948160	-0.011984	2.230303
64.923684	1478.536065	8.953165	-0.011991	2.231731
65.196108	1480.462178	8.958170	-0.012040	2.233155
65.220240	1482.514357	8.963175	-0.012045	2.234612
65.183639	1484.567220	8.968179	-0.012038	2.236054
65.124394	1486.581911	8.973184	-0.012028	2.237464
65.181288	1488.564865	8.978189	-0.012038	2.238876
65.232891	1490.575998	8.983194	-0.012048	2.240307
65.408173	1492.591618	8.988199	-0.012080	2.241767
65.532540	1494.521634	8.993203	-0.012103	2.243154
65.584103	1496.575494	8.998208	-0.012112	2.244612
65.552669	1498.616108	9.003213	-0.012107	2.246040
65.692111	1500.575118	9.008218	-0.012132	2.247449
65.776047	1502.583389	9.013223	-0.012148	2.248879
65.715475	1504.651754	9.018227	-0.012137	2.250318
65.969767	1506.618811	9.023232	-0.012183	2.251755
66.020601	1508.616081	9.028237	-0.012193	2.253167
66.108200	1510.639320	9.033242	-0.012209	2.254604
66.438094	1512.589799	9.038247	-0.012269	2.256044
66.324331	1514.631760	9.043251	-0.012249	2.257448
66.234075	1516.684055	9.048256	-0.012232	2.258864
66.475082	1518.633474	9.053261	-0.012276	2.260280
66.527264	1520.690502	9.058266	-0.012286	2.261729
66.688986	1522.597551	9.063271	-0.012315	2.263096
66.739602	1524.670652	9.068275	-0.012325	2.264554
66.585195	1526.742837	9.073280	-0.012297	2.265965
66.761471	1528.697161	9.078285	-0.012329	2.267366
66.812744	1530.678945	9.083290	-0.012339	2.268757
66.872219	1532.710970	9.088295	-0.012350	2.270185
66.902131	1534.754736	9.093299	-0.012356	2.271613
66.944530	1536.723982	9.098304	-0.012364	2.272991
67.086864	1538.732382	9.103309	-0.012390	2.274418
67.188838	1540.752782	9.108314	-0.012408	2.275843
67.191259	1542.751613	9.113319	-0.012409	2.277231
67.252719	1544.724957	9.118323	-0.012420	2.278613
67.332167	1546.762795	9.123328	-0.012435	2.280043
67.377467	1548.788341	9.128333	-0.012443	2.281455
67.424020	1550.762648	9.133338	-0.012452	2.282832
67.553182	1552.770161	9.138343	-0.012476	2.284249
67.618674	1554.792001	9.143347	-0.012488	2.285661
67.820129	1556.772085	9.148352	-0.012524	2.287073
67.895184	1558.738053	9.153357	-0.012538	2.288447
67.861320	1560.821640	9.158362	-0.012532	2.289877
67.885344	1562.847096	9.163367	-0.012537	2.291280
67.894367	1564.842267	9.168371	-0.012539	2.292657
67.939939	1566.863417	9.173376	-0.012547	2.294059
67.932114	1568.911228	9.178381	-0.012546	2.295467
68.064710	1570.863025	9.183386	-0.012570	2.296838
68.225366	1572.799255	9.188391	-0.012600	2.298204
68.321906	1574.823650	9.193395	-0.012617	2.299616
68.455711	1576.843971	9.198400	-0.012642	2.301033
68.465844	1578.845962	9.203405	-0.012644	2.302409
68.432447	1580.887192	9.208410	-0.012638	2.303802
68.522852	1582.911712	9.213415	-0.012655	2.305209
68.546442	1584.926113	9.218419	-0.012659	2.306594
68.588352	1586.900852	9.223424	-0.012667	2.307955
68.772991	1588.880790	9.228429	-0.012701	2.309349
68.718849	1590.949504	9.233434	-0.012691	2.310752
68.758422	1592.957365	9.238439	-0.012699	2.312133
69.131052	1594.850930	9.243443	-0.012766	2.313506
68.974189	1596.965418	9.248448	-0.012738	2.314916
68.747905	1599.068824	9.253453	-0.012698	2.316303
68.810426	1600.996244	9.258458	-0.012709	2.317630
68.918922	1602.981638	9.263463	-0.012729	2.319006
69.059591	1604.999198	9.268467	-0.012755	2.320410
69.120275	1606.973118	9.273472	-0.012766	2.321766
69.165658	1608.995709	9.278477	-0.012774	2.323152
69.269131	1610.985689	9.283482	-0.012793	2.324527
69.234317	1613.053318	9.288487	-0.012787	2.325924
69.534540	1614.944968	9.293491	-0.012842	2.327272
69.603126	1616.962156	9.298496	-0.012855	2.328655
69.769454	1618.975271	9.303501	-0.012885	2.330056
69.968965	1620.970035	9.308506	-0.012921	2.331450
70.043509	1622.973140	9.313511	-0.012935	2.332823
70.029328	1625.046289	9.318515	-0.012933	2.334223
70.250388	1627.009406	9.323520	-0.012973	2.335598
70.292329	1629.018955	9.328525	-0.012981	2.336966
70.417890	1630.964005	9.333530	-0.013004	2.338307
70.721776	1632.970940	9.338535	-0.013059	2.339726
70.593063	1635.049288	9.343539	-0.013036	2.341102
70.618870	1637.055711	9.348544	-0.013041	2.342461
70.586796	1639.080484	9.353549	-0.013035	2.343819
70.827951	1641.087956	9.358554	-0.013079	2.345222
70.935640	1643.066074	9.363559	-0.013099	2.346577
71.108549	1645.020797	9.368563	-0.013130	2.347929
71.062178	1647.096785	9.373568	-0.013122	2.349315
71.222377	1649.084796	9.378573	-0.013151	2.350685
71.396330	1651.058556	9.383578	-0.013183	2.352047
71.582431	1653.055530	9.388583	-0.013217	2.353427
71.579462	1655.107673	9.393587	-0.013217	2.354804
71.761385	1657.137031	9.398592	-0.013250	2.356203
71.795238	1659.066629	9.403597	-0.013256	2.357503
71.843702	1661.138447	9.408602	-0.013265	2.358901
71.956125	1663.123889	9.413607	-0.013286	2.360253
72.254696	1665.097909	9.418611	-0.013340	2.361636
72.287201	1667.110435	9.423616	-0.013346	2.362989
72.467887	1669.114569	9.428621	-0.013379	2.364366
72.545074	1671.165073	9.433626	-0.013393	2.365751
72.684217	1673.129159	9.438631	-0.013419	2.367091
72.908072	1675.089276	9.443635	-0.013460	2.368445
72.826710	1677.212981	9.448640	-0.013445	2.369844
72.950204	1679.203264	9.453645	-0.013468	2.371196
73.091696	1681.194734	9.458650	-0.013494	2.372552
73.164896	1683.214300	9.463655	-0.013507	2.373911
73.262373	1685.227007	9.468659	-0.013525	2.375270
73.286902	1687.224397	9.473664	-0.013530	2.376603
73.515261	1689.163169	9.478669	-0.013571	2.377939
73.690251	1691.154992	9.483674	-0.013603	2.379297
73.582066	1693.288672	9.488679	-0.013584	2.380691
73.692552	1695.233283	9.493683	-0.013604	2.382004
73.997977	1697.183785	9.498688	-0.013659	2.383360
73.743234	1699.319064	9.503693	-0.013614	2.384722
74.024555	1701.268115	9.508698	-0.013665	2.386070
74.068557	1703.229674	9.513703	-0.013673	2.387378
74.327418	1705.252952	9.518707	-0.013720	2.388769
74.204348	1707.313391	9.523712	-0.013698	2.390106
74.454575	1709.286244	9.528717	-0.013744	2.391461
74.369270	1711.328459	9.533722	-0.013728	2.392791
74.312683	1713.389833	9.538727	-0.013718	2.394140
74.538322	1715.343765	9.543731	-0.013759	2.395475
74.574519	1717.340685	9.548736	-0.013766	2.396799
74.686390	1719.310693	9.553741	-0.013787	2.398120
74.670823	1721.374782	9.558746	-0.013784	2.399476
74.790970	1723.381728	9.563751	-0.013806	2.400821
74.781029	1725.394396	9.568755	-0.013805	2.402142
74.770943	1727.414629	9.573760	-0.013803	2.403468
74.929612	1729.413984	9.578765	-0.013832	2.404814
74.903733	1731.438041	9.583770	-0.013828	2.406138
75.077124	1733.384677	9.588775	-0.013859	2.407451
75.103939	1735.401732	9.593779	-0.013864	2.408779
75.169664	1737.444754	9.598784	-0.013877	2.410132
75.028773	1739.516834	9.603789	-0.013851	2.411461
75.210497	1741.467495	9.608794	-0.013884	2.412775
75.263052	1743.478192	9.613799	-0.013894	2.414101
75.342639	1745.491412	9.618803	-0.013909	2.415434
75.556849	1747.397365	9.623808	-0.013948	2.416724
75.616641	1749.416091	9.628813	-0.013959	2.418055
75.680704	1751.437251	9.633818	-0.013971	2.419388
75.806688	1753.456377	9.638823	-0.013994	2.420731
75.819864	1755.432861	9.643827	-0.013996	2.422023
75.987816	1757.436690	9.648832	-0.014027	2.423363
75.873570	1759.503472	9.653837	-0.014007	2.424687
76.024097	1761.509944	9.658842	-0.014034	2.426024
76.063168	1763.466195	9.663847	-0.014041	2.427305
76.119007	1765.523918	9.668851	-0.014052	2.428655
76.242141	1767.491828	9.673856	-0.014074	2.429959
76.208154	1769.552009	9.678861	-0.014068	2.431291
76.304055	1771.501690	9.683866	-0.014086	2.432576
76.290125	1773.573508	9.688871	-0.014084	2.433918
76.265515	1775.596093	9.693875	-0.014080	2.435225
76.474780	1777.513674	9.698880	-0.014118	2.436511
76.590890	1779.508371	9.703885	-0.014139	2.437826
76.616339	1781.573205	9.708890	-0.014144	2.439169
76.598499	1783.594194	9.713895	-0.014141	2.440474
76.751507	1785.535432	9.718899	-0.014169	2.441760
76.759714	1787.572489	9.723904	-0.014171	2.443079
76.854342	1789.599637	9.728909	-0.014188	2.444408
76.935814	1791.609498	9.733914	-0.014203	2.445723
76.978029	1793.579864	9.738919	-0.014211	2.447003
76.871675	1795.625492	9.743923	-0.014192	2.448302
76.979122	1797.658912	9.748928	-0.014211	2.449635
77.009484	1799.665675	9.753933	-0.014217	2.450934
77.092331	1801.649787	9.758938	-0.014232	2.452229
77.354294	1803.579417	9.763943	-0.014280	2.453523
77.262152	1805.679881	9.768947	-0.014264	2.454857
77.176169	1807.685119	9.773952	-0.014248	2.456130
77.239884	1809.642985	9.778957	-0.014260	2.457401
77.429035	1811.626602	9.783962	-0.014295	2.458713
77.394983	1813.695273	9.788967	-0.014289	2.460035
77.508804	1815.635978	9.793971	-0.014310	2.461303
77.624560	1817.637971	9.798976	-0.014331	2.462610
77.535270	1819.717202	9.803981	-0.014315	2.463925
77.630000	1821.729812	9.808986	-0.014332	2.465234
77.702834	1823.666395	9.813991	-0.014346	2.466489
77.848877	1825.679964	9.818995	-0.014372	2.467806
77.835016	1827.720501	9.824000	-0.014370	2.469109
77.866741	1829.755878	9.829005	-0.014376	2.470417
77.991632	1831.705976	9.834010	-0.014399	2.471688
78.047009	1833.727657	9.839015	-0.014409	2.472990
78.243911	1835.702668	9.844019	-0.014445	2.474290
78.334655	1837.740337	9.849024	-0.014462	2.475608
78.174751	1839.720656	9.854029	-0.014433	2.476840
78.380833	1841.719070	9.859034	-0.014471	2.478154
78.351797	1843.770141	9.864039	-0.014466	2.479455
78.501578	1845.784166	9.869043	-0.014493	2.480767
78.426714	1847.765623	9.874048	-0.014480	2.482013
78.745040	1849.746627	9.879053	-0.014538	2.483336
78.493622	1851.844111	9.884058	-0.014492	2.484620
78.694424	1853.807208	9.889063	-0.014529	2.485907
78.620623	1855.794604	9.894067	-0.014516	2.487155
78.950881	1857.772873	9.899072	-0.014576	2.488475
78.664289	1859.891465	9.904077	-0.014524	2.489764
79.086729	1861.781808	9.909082	-0.014601	2.491045
79.082007	1863.788992	9.914087	-0.014600	2.492316
79.105971	1865.868495	9.919091	-0.014605	2.493638
79.200879	1867.845925	9.924096	-0.014622	2.494908
79.400683	1869.792656	9.929101	-0.014659	2.496179
79.347483	1871.797647	9.934106	-0.014649	2.497437
79.473245	1873.845502	9.939111	-0.014672	2.498756
79.521351	1875.859744	9.944115	-0.014681	2.500038
79.642324	1877.832140	9.949120	-0.014703	2.501307
79.618421	1879.845831	9.954125	-0.014699	2.502574
79.733741	1881.870280	9.959130	-0.014720	2.503873
79.886817	1883.866643	9.964135	-0.014748	2.505162
80.046304	1885.804623	9.969139	-0.014777	2.506414
79.850071	1887.892143	9.974144	-0.014742	2.507691
80.020822	1889.913510	9.979149	-0.014773	2.508997
80.074676	1891.918717	9.984154	-0.014783	2.510269
80.149406	1893.899188	9.989159	-0.014797	2.511529
80.188743	1895.920585	9.994163	-0.014805	2.512807
80.447773	1897.915198	9.999168	-0.014852	2.514110
80.439294	1899.933464	10.004173	-0.014850	2.515376
80.586497	1901.862998	10.009178	-0.014877	2.516616
80.370163	1903.960398	10.014183	-0.014838	2.517890
80.686556	1905.919281	10.019187	-0.014896	2.519179
80.673173	1907.946611	10.024192	-0.014894	2.520447
80.838107	1909.913125	10.029197	-0.014924	2.521710
80.815580	1911.954022	10.034202	-0.014920	2.522984
80.925859	1913.993968	10.039207	-0.014940	2.524281
81.021439	1915.965091	10.044211	-0.014958	2.525533
80.978986	1917.975708	10.049216	-0.014950	2.526781
81.212914	1919.940481	10.054221	-0.014993	2.528054
81.230834	1922.014640	10.059226	-0.014996	2.529353
81.395690	1923.973378	10.064231	-0.015026	2.530607
81.240552	1926.033994	10.069235	-0.014999	2.531863
81.448771	1927.995255	10.074240	-0.015036	2.533125
81.627796	1930.015578	10.079245	-0.015069	2.534419
81.669012	1931.988612	10.084250	-0.015077	2.535656
81.653787	1933.973349	10.089255	-0.015074	2.536888
81.551948	1936.043977	10.094259	-0.015056	2.538158
81.834467	1938.027552	10.099264	-0.015108	2.539445
81.889318	1940.006154	10.104269	-0.015118	2.540686
82.164823	1941.967843	10.109274	-0.015168	2.541957
82.002383	1944.059047	10.114279	-0.015139	2.543225
81.976008	1946.119768	10.119283	-0.015134	2.544499
82.290140	1948.008102	10.124288	-0.015191	2.545730
82.175727	1950.056185	10.129293	-0.015171	2.546979
82.313607	1952.064773	10.134298	-0.015196	2.548250
82.304663	1954.124998	10.139303	-0.015195	2.549525
82.422791	1956.091249	10.144307	-0.015216	2.550765
82.648412	1958.067574	10.149312	-0.015257	2.552030
82.571294	1960.136009	10.154317	-0.015244	2.553295
82.746894	1962.135456	10.159322	-0.015276	2.554565
82.719904	1964.110540	10.164327	-0.015271	2.555780
82.634530	1966.142527	10.169331	-0.015256	2.557020
82.671922	1968.153486	10.174336	-0.015263	2.558268
82.834816	1970.149961	10.179341	-0.015293	2.559531
82.812334	1972.154835	10.184346	-0.015289	2.560763
82.778183	1974.177394	10.189351	-0.015283	2.562004
82.815630	1976.198121	10.194355	-0.015290	2.563256
82.993967	1978.190371	10.199360	-0.015322	2.564517
83.234402	1980.106649	10.204365	-0.015366	2.565741
83.281545	1982.118280	10.209370	-0.015375	2.566988
83.198052	1984.181585	10.214375	-0.015360	2.568241
83.403940	1986.190821	10.219379	-0.015398	2.569515
83.559551	1988.148293	10.224384	-0.015426	2.570747
83.570517	1990.186859	10.229389	-0.015428	2.572001
83.484813	1992.159163	10.234394	-0.015413	2.573195
83.538522	1993.715848	10.239399	-0.015423	2.574160

83.718873	1994.834172	10.244403	-0.015456	2.574880
83.688243	1995.807956	10.249408	-0.015450	2.575472
83.655061	1996.484016	10.254413	-0.015444	2.575880
83.638468	1996.916492	10.259418	-0.015442	2.576142
83.687463	1997.286276	10.264423	-0.015451	2.576378
83.799570	1997.495278	10.269427	-0.015471	2.576527
83.650394	1997.830365	10.274432	-0.015444	2.576705
83.777946	1997.799318	10.279437	-0.015467	2.576709
83.852810	1997.764678	10.284442	-0.015481	2.576702
83.984162	1998.102373	10.289447	-0.015505	2.576934
83.885076	1998.255396	10.294451	-0.015487	2.577009
84.020359	1998.230664	10.299456	-0.015511	2.577019
84.025964	1998.201287	10.304461	-0.015513	2.577002
83.960755	1998.239047	10.309466	-0.015501	2.577014
84.145134	1998.165246	10.314471	-0.015534	2.577003
84.192646	1998.176119	10.319475	-0.015543	2.577018
84.347345	1998.119496	10.324480	-0.015571	2.577013
84.513774	1998.087076	10.329485	-0.015601	2.577024
84.482155	1998.074368	10.334490	-0.015596	2.577010
84.391662	1998.124912	10.339495	-0.015579	2.577024
84.607489	1998.031613	10.344499	-0.015618	2.577008
84.559051	1998.066821	10.349504	-0.015610	2.577020
84.553360	1998.036038	10.354509	-0.015609	2.577000
84.674267	1998.187143	10.359514	-0.015631	2.577116
84.667872	1998.288807	10.364519	-0.015630	2.577177
84.632899	1998.275334	10.369523	-0.015623	2.577162
84.685588	1998.270876	10.374528	-0.015633	2.577169
84.813110	1998.273985	10.379533	-0.015656	2.577195
84.731454	1998.246425	10.384538	-0.015642	2.577163
84.827338	1998.240298	10.389543	-0.015659	2.577177
84.721076	1998.316021	10.394547	-0.015640	2.577204
84.800169	1998.257928	10.399552	-0.015654	2.577183
84.876679	1998.238329	10.404557	-0.015668	2.577186
85.113090	1998.269480	10.409562	-0.015711	2.577249
84.940743	1998.287074	10.414567	-0.015680	2.577228
85.031019	1998.255136	10.419571	-0.015696	2.577225
84.923103	1998.274798	10.424576	-0.015677	2.577217
84.994134	1998.267821	10.429581	-0.015690	2.577226
85.024343	1998.281156	10.434586	-0.015695	2.577240
85.175541	1998.278851	10.439591	-0.015723	2.577267
84.996602	1998.252332	10.444595	-0.015691	2.577217
85.251219	1998.256800	10.449600	-0.015737	2.577267
85.011403	1998.290833	10.454605	-0.015693	2.577244
85.140891	1998.274745	10.459610	-0.015717	2.577258
85.117313	1998.253220	10.464615	-0.015713	2.577241
85.261281	1998.297958	10.469619	-0.015739	2.577295
85.062305	1998.276511	10.474624	-0.015703	2.577245
85.173785	1998.283990	10.479629	-0.015723	2.577270
85.272838	1998.241229	10.484634	-0.015741	2.577263
85.220375	1998.268745	10.489639	-0.015732	2.577270
85.010839	1998.313445	10.494643	-0.015694	2.577258
85.055201	1998.237883	10.499648	-0.015702	2.577220
85.196120	1998.250679	10.504653	-0.015728	2.577255
85.122432	1998.297134	10.509658	-0.015715	2.577269
85.091691	1998.254600	10.514663	-0.015709	2.577238
85.292960	1998.265608	10.519667	-0.015746	2.577282
85.134998	1998.275261	10.524672	-0.015717	2.577259
85.134795	1998.268796	10.529677	-0.015717	2.577255
85.110366	1998.276831	10.534682	-0.015713	2.577255
85.232305	1998.257688	10.539687	-0.015735	2.577266
85.293728	1998.277330	10.544691	-0.015746	2.577290
85.443617	1998.245612	10.549696	-0.015773	2.577298
85.344309	1998.283804	10.554701	-0.015755	2.577303
85.538180	1998.257569	10.559706	-0.015791	2.577324
85.385514	1998.256183	10.564711	-0.015763	2.577294
85.553856	1998.272874	10.569715	-0.015794	2.577336
85.469252	1998.283663	10.574720	-0.015778	2.577327
85.515705	1998.281612	10.579725	-0.015787	2.577334
85.553113	1998.254793	10.584730	-0.015794	2.577325
85.635629	1998.248402	10.589735	-0.015809	2.577337
85.473118	1998.273196	10.594739	-0.015780	2.577322
85.680912	1998.229987	10.599744	-0.015817	2.577334
85.429589	1998.295036	10.604749	-0.015772	2.577327
85.622865	1998.257261	10.609754	-0.015807	2.577340
85.600431	1998.242266	10.614759	-0.015803	2.577327
85.681173	1998.234631	10.619763	-0.015818	2.577337
85.458697	1998.274346	10.624768	-0.015777	2.577320
85.588970	1998.255218	10.629773	-0.015801	2.577333
85.571432	1998.261158	10.634778	-0.015798	2.577333
85.615563	1998.258794	10.639783	-0.015806	2.577340
85.675436	1998.216990	10.644787	-0.015817	2.577326
85.572443	1998.271846	10.649792	-0.015798	2.577340
85.575030	1998.244912	10.654797	-0.015799	2.577324
85.498635	1998.278176	10.659802	-0.015785	2.577331
85.541638	1998.262905	10.664807	-0.015793	2.577329
85.712481	1998.230422	10.669811	-0.015824	2.577341
85.697051	1998.216101	10.674816	-0.015821	2.577330
85.578090	1998.274284	10.679821	-0.015800	2.577344
85.684006	1998.205484	10.684826	-0.015819	2.577321
85.665749	1998.233302	10.689831	-0.015816	2.577335
85.607356	1998.241217	10.694835	-0.015806	2.577329
85.681273	1998.241263	10.699840	-0.015819	2.577343
85.613845	1998.234853	10.704845	-0.015807	2.577326
85.680638	1998.229166	10.709850	-0.015819	2.577336
85.545813	1998.241210	10.714855	-0.015795	2.577318
85.592068	1998.257821	10.719859	-0.015803	2.577337
85.556676	1998.259507	10.724864	-0.015797	2.577331
85.686461	1998.231355	10.729869	-0.015821	2.577338
85.594889	1998.236872	10.734874	-0.015804	2.577325
85.597401	1998.254043	10.739879	-0.015805	2.577336
85.511274	1998.260453	10.744883	-0.015789	2.577324
85.552242	1998.268479	10.749888	-0.015797	2.577336
85.530878	1998.259530	10.754893	-0.015793	2.577327
85.729117	1998.229164	10.759898	-0.015829	2.577346
85.720376	1998.198794	10.764903	-0.015827	2.577325
85.767559	1998.206205	10.769907	-0.015836	2.577339
85.571284	1998.236169	10.774912	-0.015801	2.577321
85.701455	1998.218601	10.779917	-0.015824	2.577334
85.571476	1998.244970	10.784922	-0.015801	2.577326
85.874795	1998.178577	10.789927	-0.015856	2.577342
85.719046	1998.201060	10.794931	-0.015828	2.577327
85.759896	1998.203262	10.799936	-0.015835	2.577336
85.727860	1998.186345	10.804941	-0.015829	2.577320
85.861238	1998.164235	10.809946	-0.015854	2.577331
85.835897	1998.147066	10.814951	-0.015849	2.577316
85.619140	1998.236768	10.819955	-0.015810	2.577331
85.644936	1998.219340	10.824960	-0.015815	2.577325
85.894954	1998.160745	10.829965	-0.015860	2.577336
85.757836	1998.185717	10.834970	-0.015835	2.577326
85.684478	1998.261121	10.839975	-0.015822	2.577358
85.663208	1998.253417	10.844979	-0.015819	2.577350
85.688584	1998.255991	10.849984	-0.015823	2.577356
85.668482	1998.302717	10.854989	-0.015820	2.577381
85.811894	1998.240863	10.859994	-0.015846	2.577370
85.848214	1998.274255	10.864999	-0.015852	2.577397
86.038586	1998.254693	10.870003	-0.015887	2.577421
85.767605	1998.250036	10.875008	-0.015838	2.577368
85.834532	1998.289157	10.880013	-0.015850	2.577404
85.793656	1998.243840	10.885018	-0.015843	2.577369
85.841746	1998.260913	10.890023	-0.015852	2.577388
85.762587	1998.287882	10.895027	-0.015837	2.577390
85.745374	1998.262636	10.900032	-0.015834	2.577372
85.802439	1998.222959	10.905037	-0.015845	2.577358
85.998897	1998.290223	10.910042	-0.015880	2.577436
85.862671	1998.256824	10.915047	-0.015856	2.577390
85.822501	1998.302262	10.920051	-0.015849	2.577411
85.942299	1998.229495	10.925056	-0.015870	2.577389
85.872110	1998.296547	10.930061	-0.015858	2.577417
85.871969	1998.272735	10.935066	-0.015858	2.577402
85.945772	1998.213953	10.940071	-0.015871	2.577380
85.864797	1998.271544	10.945075	-0.015857	2.577400
85.998704	1998.302022	10.950080	-0.015881	2.577444
85.974403	1998.252173	10.955085	-0.015877	2.577409
86.045425	1998.265333	10.960090	-0.015890	2.577430
85.891163	1998.241495	10.965095	-0.015862	2.577387
86.042334	1998.251943	10.970099	-0.015889	2.577422
85.980312	1998.288482	10.975104	-0.015878	2.577433
85.924833	1998.242763	10.980109	-0.015868	2.577395
85.855534	1998.252719	10.985114	-0.015856	2.577388
85.939369	1998.284661	10.990119	-0.015871	2.577423
85.957318	1998.252291	10.995123	-0.015874	2.577407
85.973343	1998.291345	11.000128	-0.015877	2.577434
85.847946	1998.260005	11.005133	-0.015855	2.577391
85.929472	1998.264873	11.010138	-0.015870	2.577410
85.905398	1998.251141	11.015143	-0.015865	2.577397
85.966245	1998.261788	11.020147	-0.015877	2.577415
86.017276	1998.280770	11.025152	-0.015886	2.577436
86.124273	1998.250629	11.030157	-0.015905	2.577437
86.035946	1998.258216	11.035162	-0.015889	2.577426
86.102824	1998.285377	11.040167	-0.015902	2.577455
85.964991	1998.237940	11.045171	-0.015877	2.577400
86.130359	1998.280768	11.050176	-0.015907	2.577457
86.080154	1998.242873	11.055181	-0.015898	2.577425
85.996835	1998.276204	11.060186	-0.015883	2.577430
85.869300	1998.257999	11.065191	-0.015860	2.577395
86.027054	1998.276130	11.070195	-0.015888	2.577436
86.020021	1998.285246	11.075200	-0.015887	2.577440
86.049059	1998.264539	11.080205	-0.015893	2.577433
86.069982	1998.263371	11.085210	-0.015897	2.577436
86.200426	1998.266873	11.090215	-0.015920	2.577463
86.187757	1998.266491	11.095219	-0.015918	2.577460
86.040516	1998.250455	11.100224	-0.015891	2.577423
86.068961	1998.268405	11.105229	-0.015897	2.577440
86.142595	1998.237196	11.110234	-0.015910	2.577434
86.117445	1998.271952	11.115239	-0.015906	2.577451
86.026434	1998.276788	11.120243	-0.015889	2.577437
85.929322	1998.251371	11.125248	-0.015872	2.577403
86.179780	1998.275972	11.130253	-0.015917	2.577465
86.112738	1998.238864	11.135258	-0.015905	2.577430
86.062667	1998.286803	11.140263	-0.015896	2.577450
86.046858	1998.232589	11.145267	-0.015893	2.577414
86.183951	1998.288601	11.150272	-0.015918	2.577474
86.265437	1998.264433	11.155277	-0.015933	2.577475
86.369026	1998.248324	11.160282	-0.015952	2.577484
86.210547	1998.265519	11.165287	-0.015923	2.577465
86.307693	1998.245763	11.170291	-0.015941	2.577471
86.205893	1998.290574	11.175296	-0.015923	2.577480
86.264924	1998.273488	11.180301	-0.015934	2.577481
86.108343	1998.272267	11.185306	-0.015905	2.577451
86.355527	1998.269835	11.190311	-0.015950	2.577495
86.229680	1998.278382	11.195315	-0.015927	2.577477
86.421635	1998.278217	11.200320	-0.015962	2.577513
86.274968	1998.261749	11.205325	-0.015936	2.577476
86.237723	1998.258901	11.210330	-0.015929	2.577467
86.128893	1998.268900	11.215335	-0.015910	2.577453
86.370710	1998.258161	11.220339	-0.015953	2.577492
86.346644	1998.298195	11.225344	-0.015949	2.577512
86.227877	1998.274518	11.230349	-0.015928	2.577475
86.272632	1998.264576	11.235354	-0.015936	2.577478
86.303340	1998.251005	11.240359	-0.015942	2.577475
86.144616	1998.257317	11.245363	-0.015913	2.577449
86.058955	1998.292634	11.250368	-0.015898	2.577455
86.297692	1998.243333	11.255373	-0.015941	2.577470
86.351999	1998.269220	11.260378	-0.015951	2.577496
86.232508	1998.279912	11.265383	-0.015929	2.577480
86.327013	1998.235985	11.270387	-0.015946	2.577471
86.311459	1998.285917	11.275392	-0.015944	2.577499
86.222199	1998.225749	11.280397	-0.015928	2.577445
86.240735	1998.264296	11.285402	-0.015931	2.577472
86.363269	1998.284984	11.290407	-0.015953	2.577508
86.239430	1998.296997	11.295411	-0.015931	2.577492
86.403789	1998.261647	11.300416	-0.015961	2.577501
86.302837	1998.281991	11.305421	-0.015943	2.577495
86.343526	1998.223083	11.310426	-0.015950	2.577467
86.334850	1998.311952	11.315431	-0.015949	2.577520
86.484914	1998.238901	11.320435	-0.015976	2.577503
86.337398	1998.289458	11.325440	-0.015949	2.577507
86.343281	1998.256422	11.330445	-0.015950	2.577488
86.291086	1998.287680	11.335450	-0.015941	2.577497
86.329985	1998.275441	11.340455	-0.015948	2.577497
86.390169	1998.261572	11.345459	-0.015959	2.577500
86.457515	1998.285790	11.350464	-0.015971	2.577527
86.326057	1998.257562	11.355469	-0.015948	2.577486
86.295320	1998.262164	11.360474	-0.015942	2.577483
86.314010	1998.261166	11.365479	-0.015946	2.577486
86.366061	1998.290288	11.370483	-0.015955	2.577513
86.237599	1998.291985	11.375488	-0.015932	2.577491
86.463084	1998.255123	11.380493	-0.015973	2.577510
86.289248	1998.266538	11.385498	-0.015942	2.577485
86.399738	1998.284008	11.390503	-0.015962	2.577516
86.229226	1998.246759	11.395507	-0.015931	2.577462
86.298108	1998.304656	11.400512	-0.015944	2.577510
86.303418	1998.270011	11.405517	-0.015945	2.577490
86.217545	1998.268188	11.410522	-0.015929	2.577473
86.375027	1998.247925	11.415527	-0.015958	2.577490
86.459860	1998.308873	11.420531	-0.015973	2.577543
86.222180	1998.250763	11.425536	-0.015930	2.577463
86.368569	1998.241773	11.430541	-0.015957	2.577485
86.294777	1998.279597	11.435546	-0.015944	2.577495
86.330184	1998.287787	11.440551	-0.015950	2.577506
86.366982	1998.265993	11.445555	-0.015957	2.577500
86.434176	1998.297647	11.450560	-0.015969	2.577532
86.254426	1998.258110	11.455565	-0.015937	2.577474
86.337795	1998.261146	11.460570	-0.015952	2.577492
86.402557	1998.270349	11.465575	-0.015964	2.577510
86.423402	1998.248054	11.470579	-0.015968	2.577500
86.339042	1998.286798	11.475584	-0.015952	2.577508
86.380698	1998.267095	11.480589	-0.015960	2.577504
86.310484	1998.271978	11.485594	-0.015947	2.577494
86.375346	1998.267899	11.490599	-0.015959	2.577504
86.475797	1998.252490	11.495603	-0.015977	2.577513
86.475486	1998.261092	11.500608	-0.015978	2.577518
86.403461	1998.301182	11.505613	-0.015965	2.577530
86.463247	1998.270615	11.510618	-0.015976	2.577522
86.458947	1998.267179	11.515623	-0.015975	2.577519
86.557637	1998.251796	11.520627	-0.015993	2.577528
86.431089	1998.271003	11.525632	-0.015970	2.577517
86.587608	1998.260208	11.530637	-0.015998	2.577539
86.649075	1998.286214	11.535642	-0.016010	2.577567
86.595228	1998.230565	11.540647	-0.016000	2.577523
86.571640	1998.300524	11.545651	-0.015996	2.577561
86.512106	1998.267756	11.550656	-0.015985	2.577530
86.618437	1998.247246	11.555661	-0.016004	2.577538
86.614037	1998.268559	11.560666	-0.016004	2.577550
86.439866	1998.248986	11.565671	-0.015972	2.577506
86.685152	1998.292240	11.570675	-0.016017	2.577578
86.618029	1998.283185	11.575680	-0.016005	2.577560
86.541674	1998.246102	11.580685	-0.015991	2.577523
86.554793	1998.282220	11.585690	-0.015993	2.577548
86.654932	1998.254674	11.590695	-0.016012	2.577550
86.646192	1998.277307	11.595699	-0.016010	2.577562
86.588796	1998.278037	11.600704	-0.016000	2.577552
86.450583	1998.262565	11.605709	-0.015975	2.577517
86.573990	1998.291908	11.610714	-0.015997	2.577558
86.464810	1998.287486	11.615719	-0.015978	2.577535
86.525202	1998.247051	11.620723	-0.015989	2.577521
86.546408	1998.276888	11.625728	-0.015993	2.577544
86.637100	1998.291715	11.630733	-0.016009	2.577570
86.561486	1998.272245	11.635738	-0.015996	2.577544
86.678128	1998.236368	11.640743	-0.016017	2.577544
86.618609	1998.301963	11.645747	-0.016006	2.577573
86.592171	1998.235177	11.650752	-0.016001	2.577527
86.633797	1998.277664	11.655757	-0.016009	2.577561
86.761384	1998.286115	11.660762	-0.016032	2.577590
86.638863	1998.268674	11.665767	-0.016010	2.577557
86.858987	1998.294352	11.670771	-0.016050	2.577613
86.909251	1998.265661	11.675776	-0.016059	2.577605
86.769532	1998.266955	11.680781	-0.016034	2.577580
86.717042	1998.266957	11.685786	-0.016025	2.577570
86.792763	1998.301881	11.690791	-0.016038	2.577606
86.860892	1998.283559	11.695795	-0.016051	2.577608
86.726552	1998.256204	11.700800	-0.016027	2.577566
86.882865	1998.252609	11.705805	-0.016055	2.577593
86.969205	1998.267231	11.710810	-0.016071	2.577618
86.836838	1998.275973	11.715815	-0.016047	2.577599
86.957282	1998.264935	11.720819	-0.016069	2.577615
86.850086	1998.302723	11.725824	-0.016049	2.577618
86.888389	1998.223641	11.730829	-0.016056	2.577577
86.831981	1998.302817	11.735834	-0.016046	2.577615
86.842884	1998.271057	11.740839	-0.016048	2.577597
86.930676	1998.253891	11.745843	-0.016064	2.577603
86.978554	1998.306202	11.750848	-0.016073	2.577644
86.908719	1998.252353	11.755853	-0.016061	2.577599
86.842861	1998.235777	11.760858	-0.016049	2.577576
86.759602	1998.286165	11.765863	-0.016034	2.577592
86.879983	1998.264442	11.770867	-0.016056	2.577601
86.983687	1998.262317	11.775872	-0.016075	2.577619
86.901201	1998.275006	11.780877	-0.016060	2.577612
87.016570	1998.235949	11.785882	-0.016081	2.577609
87.049087	1998.277131	11.790887	-0.016087	2.577641
87.042344	1998.287689	11.795891	-0.016085	2.577646
87.232038	1998.231895	11.800896	-0.016120	2.577647
86.933427	1998.304435	11.805901	-0.016066	2.577636
87.092036	1998.255799	11.810906	-0.016095	2.577636
86.865185	1998.284858	11.815911	-0.016054	2.577612
87.017915	1998.282608	11.820915	-0.016082	2.577639
86.775915	1998.224785	11.825920	-0.016038	2.577558
86.920078	1998.257759	11.830925	-0.016064	2.577605
86.965561	1998.292194	11.835930	-0.016072	2.577635
86.917703	1998.258422	11.840935	-0.016064	2.577606
86.953271	1998.268603	11.845939	-0.016070	2.577619
86.987604	1998.265143	11.850944	-0.016077	2.577623
86.971228	1998.239383	11.855949	-0.016074	2.577604
87.000920	1998.290598	11.860954	-0.016079	2.577641
86.964137	1998.266200	11.865959	-0.016073	2.577619
86.976073	1998.262160	11.870963	-0.016075	2.577619
87.074991	1998.233966	11.875968	-0.016093	2.577621
87.047036	1998.265245	11.880973	-0.016088	2.577635
87.006631	1998.264885	11.885978	-0.016081	2.577627
87.032333	1998.277557	11.890983	-0.016085	2.577640
86.987945	1998.251649	11.895987	-0.016078	2.577616
86.868619	1998.282421	11.900992	-0.016056	2.577612
87.172634	1998.228567	11.905997	-0.016111	2.577636
87.030699	1998.279974	11.911002	-0.016086	2.577641
87.024267	1998.260366	11.916007	-0.016084	2.577628
87.050946	1998.275034	11.921011	-0.016089	2.577642
87.024402	1998.232997	11.926016	-0.016085	2.577612
86.914538	1998.262166	11.931021	-0.016065	2.577609
86.985311	1998.286109	11.936026	-0.016078	2.577637
87.059577	1998.261588	11.941031	-0.016091	2.577636
87.014097	1998.277807	11.946035	-0.016083	2.577637
87.031478	1998.275169	11.951040	-0.016086	2.577639
87.034835	1998.232196	11.956045	-0.016087	2.577614
87.028203	1998.280693	11.961050	-0.016086	2.577642
87.120283	1998.256363	11.966055	-0.016103	2.577644
87.128469	1998.262637	11.971059	-0.016104	2.577650
87.109479	1998.257550	11.976064	-0.016101	2.577643
87.037374	1998.265554	11.981069	-0.016088	2.577635
87.001113	1998.278970	11.986074	-0.016082	2.577637
87.019557	1998.270402	11.991079	-0.016085	2.577635
87.066818	1998.256131	11.996083	-0.016094	2.577635
87.044833	1998.275401	12.001088	-0.016090	2.577643
87.002363	1998.263691	12.006093	-0.016082	2.577628
87.116410	1998.235995	12.011098	-0.016103	2.577632
87.228582	1998.221356	12.016103	-0.016123	2.577644
87.217031	1998.224201	12.021107	-0.016121	2.577644
87.071681	1998.262885	12.026112	-0.016095	2.577641
87.087647	1998.256855	12.031117	-0.016098	2.577640
87.026017	1998.274416	12.036122	-0.016087	2.577639
87.235019	1998.230847	12.041127	-0.016125	2.577652
87.128222	1998.253477	12.046131	-0.016106	2.577646
87.182282	1998.244784	12.051136	-0.016116	2.577651
87.303355	1998.202209	12.056141	-0.016137	2.577647
87.192765	1998.225482	12.061146	-0.016118	2.577641
87.235593	1998.210519	12.066151	-0.016125	2.577640
87.280530	1998.201287	12.071155	-0.016134	2.577643
87.200933	1998.227370	12.076160	-0.016119	2.577644
87.387252	1998.160115	12.081165	-0.016153	2.577637
87.236168	1998.193916	12.086170	-0.016126	2.577630
87.344325	1998.178204	12.091175	-0.016146	2.577641
87.353755	1998.179768	12.096179	-0.016147	2.577644
87.210791	1998.223843	12.101184	-0.016122	2.577644
87.226992	1998.205253	12.106189	-0.016125	2.577636
87.363980	1998.170072	12.111194	-0.016149	2.577640
87.273668	1998.194060	12.116199	-0.016133	2.577638
87.288775	1998.191859	12.121203	-0.016136	2.577639
87.442770	1998.124747	12.126208	-0.016164	2.577627
87.098771	1998.252882	12.131213	-0.016102	2.577641
87.215254	1998.213742	12.136218	-0.016123	2.577639
87.401330	1998.161087	12.141223	-0.016157	2.577642
87.348538	1998.170100	12.146227	-0.016147	2.577638
87.415417	1998.153177	12.151232	-0.016160	2.577640
87.605655	1998.274856	12.156237	-0.016194	2.577750
87.398515	1998.262493	12.161242	-0.016157	2.577704
87.549049	1998.279774	12.166247	-0.016184	2.577742
87.535126	1998.247405	12.171251	-0.016182	2.577720
87.442486	1998.284844	12.176256	-0.016165	2.577726
87.347792	1998.270916	12.181261	-0.016148	2.577700
87.441292	1998.255839	12.186266	-0.016165	2.577708
87.543711	1998.274496	12.191271	-0.016183	2.577739
87.506122	1998.256458	12.196275	-0.016177	2.577721
87.506364	1998.251130	12.201280	-0.016177	2.577718
87.450386	1998.290420	12.206285	-0.016167	2.577731
87.593404	1998.246525	12.211290	-0.016193	2.577731
87.381897	1998.308381	12.216295	-0.016155	2.577730
87.192248	1998.268530	12.221299	-0.016120	2.577670
87.348272	1998.278788	12.226304	-0.016149	2.577706
87.414259	1998.263410	12.231309	-0.016161	2.577709
87.322185	1998.233140	12.236314	-0.016144	2.577673
87.479579	1998.170857	12.241319	-0.016173	2.577664

87.408940	1997.876168	12.246323	-0.016160	2.577471
87.427519	1996.972414	12.251328	-0.016163	2.576921
87.357339	1995.797821	12.256333	-0.016151	2.576188
87.408867	1994.343132	12.261338	-0.016160	2.575306
87.407692	1992.775406	12.266343	-0.016160	2.574345
87.429167	1991.144891	12.271347	-0.016164	2.573348
87.153682	1989.483278	12.276352	-0.016114	2.572277
87.333259	1987.611744	12.281357	-0.016146	2.571162
87.243277	1985.804724	12.286362	-0.016130	2.570036
87.221761	1983.913926	12.291367	-0.016126	2.568870
87.374739	1981.952337	12.296371	-0.016153	2.567693
87.371834	1979.992130	12.301376	-0.016153	2.566487
87.235136	1978.136996	12.306381	-0.016128	2.565320
87.179254	1976.169392	12.311386	-0.016118	2.564098
87.184604	1974.163309	12.316391	-0.016119	2.562863
87.232928	1972.152189	12.321395	-0.016127	2.561633
87.154006	1970.230667	12.326400	-0.016113	2.560434
86.991498	1968.273039	12.331405	-0.016084	2.559196
87.020325	1966.236580	12.336410	-0.016089	2.557945
87.097622	1964.204532	12.341415	-0.016103	2.556705
87.134505	1962.257277	12.346419	-0.016109	2.555509
87.144185	1960.254064	12.351424	-0.016111	2.554273
87.254402	1958.203989	12.356429	-0.016131	2.553027
87.082731	1956.257024	12.361434	-0.016100	2.551790
87.235214	1954.231059	12.366439	-0.016127	2.550565
87.099677	1952.262411	12.371443	-0.016103	2.549321
86.986078	1950.280755	12.376448	-0.016082	2.548072
87.139797	1948.209690	12.381453	-0.016110	2.546817
87.073808	1946.281430	12.386458	-0.016098	2.545609
87.112181	1944.278463	12.391463	-0.016105	2.544374
86.945100	1942.301736	12.396467	-0.016074	2.543116
87.118368	1940.231123	12.401472	-0.016106	2.541863
86.981241	1938.314835	12.406477	-0.016081	2.540646
87.023454	1936.269884	12.411482	-0.016088	2.539383
87.032765	1934.247789	12.416487	-0.016090	2.538128
87.005942	1932.248770	12.421491	-0.016085	2.536879
86.971931	1930.323636	12.426496	-0.016079	2.535674
86.967757	1928.335426	12.431501	-0.016078	2.534435
87.001265	1926.288830	12.436506	-0.016084	2.533166
86.910198	1924.294114	12.441511	-0.016067	2.531906
86.859498	1922.327349	12.446515	-0.016058	2.530669
86.988292	1920.264385	12.451520	-0.016081	2.529407
86.908235	1918.275565	12.456525	-0.016067	2.528150
86.852555	1916.265804	12.461530	-0.016057	2.526884
86.868983	1914.292178	12.466535	-0.016059	2.525653
86.952079	1912.270150	12.471539	-0.016074	2.524405
86.734498	1910.314461	12.476544	-0.016035	2.523140
86.930246	1908.239478	12.481549	-0.016070	2.521879
86.772735	1906.317531	12.486554	-0.016042	2.520645
86.804041	1904.290654	12.491559	-0.016047	2.519381
86.790272	1902.285565	12.496563	-0.016045	2.518122
86.649935	1900.294134	12.501568	-0.016019	2.516846
86.664328	1898.342884	12.506573	-0.016022	2.515625
86.880375	1896.294479	12.511578	-0.016061	2.514381
86.746504	1894.300129	12.516583	-0.016037	2.513102
86.750248	1892.278296	12.521587	-0.016037	2.511832
86.800925	1890.285041	12.526592	-0.016046	2.510589
86.790908	1888.279866	12.531597	-0.016044	2.509326
86.859559	1886.265707	12.536602	-0.016057	2.508072
86.647361	1884.316141	12.541607	-0.016018	2.506803
86.625033	1882.359151	12.546611	-0.016014	2.505566
86.672319	1880.315412	12.551616	-0.016023	2.504287
86.773874	1878.274858	12.556621	-0.016041	2.503020
86.665880	1876.296914	12.561626	-0.016021	2.501751
86.688134	1874.347751	12.566631	-0.016025	2.500525
86.561164	1872.357638	12.571635	-0.016002	2.499244
86.685619	1870.294573	12.576640	-0.016025	2.497965
86.709442	1868.264430	12.581645	-0.016029	2.496686
86.668181	1866.359431	12.586650	-0.016021	2.495473
86.523776	1864.378061	12.591655	-0.015995	2.494191
86.499228	1862.350316	12.596659	-0.015991	2.492902
86.587625	1860.306402	12.601664	-0.016006	2.491625
86.478912	1858.365715	12.606669	-0.015987	2.490374
86.426970	1856.357634	12.611674	-0.015977	2.489090
86.477266	1854.301209	12.616679	-0.015986	2.487795
86.505354	1852.285613	12.621683	-0.015991	2.486521
86.432054	1850.378154	12.626688	-0.015978	2.485296
86.496619	1848.328548	12.631693	-0.015990	2.484006
86.459615	1846.296022	12.636698	-0.015983	2.482707
86.543740	1844.296724	12.641703	-0.015998	2.481451
86.392643	1842.368605	12.646707	-0.015971	2.480195
86.351518	1840.345151	12.651712	-0.015963	2.478898
86.617172	1838.253791	12.656717	-0.016011	2.477618
86.585322	1836.283943	12.661722	-0.016005	2.476357
86.603417	1834.351359	12.666727	-0.016008	2.475128
86.471207	1832.353515	12.671731	-0.015984	2.473827
86.477950	1830.327150	12.676736	-0.015985	2.472535
86.354075	1828.370674	12.681741	-0.015963	2.471261
86.344215	1826.376195	12.686746	-0.015961	2.469985
86.386296	1824.338916	12.691751	-0.015969	2.468690
86.314735	1822.349434	12.696755	-0.015956	2.467404
86.324721	1820.370244	12.701760	-0.015957	2.466139
86.256587	1818.410551	12.706765	-0.015945	2.464871
86.297746	1816.338773	12.711770	-0.015952	2.463551
86.303234	1814.325837	12.716775	-0.015953	2.462262
86.316070	1812.355238	12.721779	-0.015956	2.461001
86.324385	1810.357373	12.726784	-0.015957	2.459720
86.308708	1808.347288	12.731789	-0.015954	2.458427
86.234389	1806.367781	12.736794	-0.015941	2.457141
86.161687	1804.451718	12.741799	-0.015927	2.455895
86.129806	1802.432551	12.746803	-0.015921	2.454590
86.263825	1800.351352	12.751808	-0.015946	2.453278
86.390038	1798.307096	12.756813	-0.015968	2.451987
86.234654	1796.397626	12.761818	-0.015940	2.450726
86.158493	1794.403677	12.766823	-0.015926	2.449426
86.103047	1792.385042	12.771827	-0.015916	2.448114
86.183704	1790.354956	12.776832	-0.015931	2.446820
86.159796	1788.400070	12.781837	-0.015926	2.445554
86.087615	1786.393218	12.786842	-0.015913	2.444244
86.141915	1784.345941	12.791847	-0.015923	2.442932
85.998601	1782.412031	12.796851	-0.015897	2.441653
86.001802	1780.424690	12.801856	-0.015897	2.440368
86.076985	1778.382852	12.806861	-0.015911	2.439062
86.147406	1776.322351	12.811866	-0.015924	2.437742
86.011710	1774.391519	12.816871	-0.015899	2.436464
86.123941	1772.390549	12.821875	-0.015919	2.435190
86.139059	1770.388891	12.826880	-0.015922	2.433895
85.963514	1768.417731	12.831885	-0.015890	2.432580
85.965385	1766.431214	12.836890	-0.015890	2.431291
85.987053	1764.393253	12.841895	-0.015894	2.429972
85.937909	1762.404014	12.846899	-0.015885	2.428669
85.966418	1760.369963	12.851904	-0.015890	2.427352
85.979117	1758.433291	12.856909	-0.015893	2.426095
85.835001	1756.468294	12.861914	-0.015866	2.424787
85.841325	1754.413209	12.866919	-0.015867	2.423450
85.987321	1752.362184	12.871923	-0.015894	2.422143
85.831873	1750.444683	12.876928	-0.015866	2.420861
85.876640	1748.407317	12.881933	-0.015874	2.419541
85.949397	1746.399907	12.886938	-0.015887	2.418246
85.967524	1744.358881	12.891943	-0.015890	2.416916
85.908968	1742.481038	12.896947	-0.015879	2.415678
85.722306	1740.498783	12.901952	-0.015845	2.414344
85.831374	1738.438321	12.906957	-0.015865	2.413018
85.829461	1736.420077	12.911962	-0.015865	2.411697
85.711677	1734.441285	12.916967	-0.015843	2.410377
85.763835	1732.399422	12.921971	-0.015853	2.409050
85.685032	1730.411469	12.926976	-0.015838	2.407731
85.572755	1728.488074	12.931981	-0.015818	2.406447
85.723604	1726.435986	12.936986	-0.015845	2.405131
85.743543	1724.401401	12.941991	-0.015849	2.403799
85.693901	1722.408793	12.946995	-0.015840	2.402480
85.535066	1720.476382	12.952000	-0.015811	2.401177
85.641909	1718.425250	12.957005	-0.015830	2.399850
85.603432	1716.411853	12.962010	-0.015823	2.398517
85.536459	1714.438304	12.967015	-0.015811	2.397204
85.420073	1712.542330	12.972019	-0.015790	2.395931
85.498776	1710.476881	12.977024	-0.015804	2.394586
85.412017	1708.460005	12.982029	-0.015788	2.393238
85.389844	1706.461090	12.987034	-0.015784	2.391914
85.419295	1704.460227	12.992039	-0.015789	2.390599
85.403112	1702.438986	12.997043	-0.015786	2.389261
85.580117	1700.357347	13.002048	-0.015818	2.387921
85.353232	1698.498093	13.007053	-0.015777	2.386645
85.424480	1696.470680	13.012058	-0.015790	2.385318
85.461491	1694.438537	13.017063	-0.015796	2.383980
85.352897	1692.446030	13.022067	-0.015777	2.382638
85.351023	1690.503841	13.027072	-0.015776	2.381350
85.165323	1688.527719	13.032077	-0.015743	2.380002
85.280731	1686.460378	13.037082	-0.015763	2.378654
85.350303	1684.438071	13.042087	-0.015776	2.377325
85.262496	1682.555652	13.047091	-0.015760	2.376057
85.320559	1680.485347	13.052096	-0.015770	2.374693
85.485329	1678.417681	13.057101	-0.015800	2.373352
85.375502	1676.465825	13.062106	-0.015780	2.372030
85.363635	1674.491573	13.067111	-0.015778	2.370713
85.222058	1672.479460	13.072115	-0.015752	2.369344
85.352873	1670.439074	13.077120	-0.015776	2.368011
85.225254	1668.506859	13.082125	-0.015753	2.366696
85.165997	1666.527297	13.087130	-0.015742	2.365362
85.303054	1664.444836	13.092135	-0.015767	2.364001
85.338721	1662.455679	13.097139	-0.015773	2.362679
85.328859	1660.480435	13.102144	-0.015771	2.361357
85.293502	1658.491392	13.107149	-0.015765	2.360019
85.068927	1656.525956	13.112154	-0.015724	2.358657
85.266910	1654.463552	13.117159	-0.015760	2.357318
85.297355	1652.515852	13.122163	-0.015765	2.356019
85.127546	1650.557975	13.127168	-0.015734	2.354671
84.987807	1648.556740	13.132173	-0.015709	2.353300
85.087598	1646.518833	13.137178	-0.015727	2.351953
85.020081	1644.526916	13.142183	-0.015715	2.350601
85.212612	1642.463241	13.147187	-0.015749	2.349255
85.095379	1640.473624	13.152192	-0.015728	2.347893
85.021070	1638.557610	13.157197	-0.015715	2.346589
84.998388	1636.550021	13.162202	-0.015711	2.345233
85.096946	1634.495946	13.167207	-0.015728	2.343871
85.090416	1632.481238	13.172211	-0.015727	2.342512
85.194508	1630.537710	13.177216	-0.015746	2.341223
85.186595	1628.480368	13.182221	-0.015744	2.339834
85.023469	1626.530159	13.187226	-0.015715	2.338483
85.195050	1624.503623	13.192231	-0.015746	2.337151
85.206641	1622.540749	13.197235	-0.015748	2.335827
85.044042	1620.561745	13.202240	-0.015718	2.334455
85.184322	1618.509864	13.207245	-0.015743	2.333096
85.014375	1616.557913	13.212250	-0.015713	2.331739
84.949192	1614.581931	13.217255	-0.015701	2.330387
85.039360	1612.516077	13.222259	-0.015717	2.329006
85.128662	1610.485750	13.227264	-0.015733	2.327648
85.090051	1608.554856	13.232269	-0.015726	2.326330
84.855893	1606.593496	13.237274	-0.015684	2.324949
84.985302	1604.514570	13.242279	-0.015707	2.323564
84.994303	1602.547145	13.247283	-0.015708	2.322229
84.946828	1600.555422	13.252288	-0.015700	2.320864
84.782859	1598.604629	13.257293	-0.015670	2.319502
84.849278	1596.545405	13.262298	-0.015682	2.318114
84.912902	1594.585614	13.267303	-0.015693	2.316792
84.783249	1592.618665	13.272307	-0.015670	2.315424
84.811971	1590.562262	13.277312	-0.015675	2.314027
84.874266	1588.546169	13.282317	-0.015686	2.312665
84.820458	1586.602197	13.287322	-0.015676	2.311326
84.658110	1584.605520	13.292327	-0.015647	2.309926
84.708124	1582.589289	13.297331	-0.015656	2.308559
84.898254	1580.508565	13.302336	-0.015690	2.307176
84.766740	1578.608254	13.307341	-0.015666	2.305847
84.805851	1576.557961	13.312346	-0.015673	2.304451
84.821514	1574.561803	13.317351	-0.015676	2.303087
84.902542	1572.587016	13.322355	-0.015691	2.301750
85.062628	1570.522778	13.327360	-0.015720	2.300368
84.728178	1568.619736	13.332365	-0.015659	2.298989
84.570296	1566.654694	13.337370	-0.015630	2.297605
84.733643	1564.656162	13.342375	-0.015660	2.296267
84.665718	1562.656382	13.347379	-0.015648	2.294877
84.628955	1560.615608	13.352384	-0.015641	2.293465
84.718980	1558.623684	13.357389	-0.015657	2.292112
84.632436	1556.610105	13.362394	-0.015641	2.290706
84.681265	1554.601132	13.367399	-0.015650	2.289332
84.650345	1552.577510	13.372403	-0.015644	2.287929
84.797655	1550.600986	13.377408	-0.015671	2.286597
84.702559	1548.605868	13.382413	-0.015654	2.285198
84.740068	1546.589663	13.387418	-0.015660	2.283813
84.636742	1544.631432	13.392423	-0.015642	2.282436
84.491669	1542.691844	13.397427	-0.015615	2.281063
84.532301	1540.651018	13.402432	-0.015623	2.279658
84.710536	1538.564929	13.407437	-0.015655	2.278252
84.510567	1536.697396	13.412442	-0.015618	2.276914
84.597430	1534.643432	13.417447	-0.015634	2.275508
84.539193	1532.647914	13.422451	-0.015623	2.274111
84.461587	1530.655701	13.427456	-0.015609	2.272710
84.504362	1528.676182	13.432461	-0.015617	2.271344
84.467095	1526.646109	13.437466	-0.015610	2.269924
84.507023	1524.622348	13.442471	-0.015617	2.268525
84.320329	1522.708966	13.447475	-0.015584	2.267152
84.356681	1520.685209	13.452480	-0.015590	2.265750
84.370630	1518.658794	13.457485	-0.015592	2.264341
84.453424	1516.619962	13.462490	-0.015607	2.262937
84.386456	1514.705884	13.467495	-0.015595	2.261586
84.256810	1512.710861	13.472499	-0.015572	2.260164
84.354348	1510.658129	13.477504	-0.015589	2.258752
84.332164	1508.680834	13.482509	-0.015585	2.257364
84.459415	1506.654889	13.487514	-0.015608	2.255975
84.270456	1504.694374	13.492519	-0.015574	2.254561
84.365359	1502.633882	13.497523	-0.015591	2.253138
84.379986	1500.659688	13.502528	-0.015593	2.251758
84.317675	1498.657841	13.507533	-0.015582	2.250340
84.196213	1496.680416	13.512538	-0.015560	2.248925
84.176197	1494.700198	13.517543	-0.015556	2.247530
84.230281	1492.708446	13.522547	-0.015566	2.246142
84.326878	1490.648541	13.527552	-0.015583	2.244715
84.192948	1488.663488	13.532557	-0.015559	2.243289
84.233171	1486.687596	13.537562	-0.015566	2.241907
84.147414	1484.722862	13.542567	-0.015551	2.240504
84.142114	1482.689654	13.547571	-0.015550	2.239069
84.078027	1480.734754	13.552576	-0.015538	2.237676
84.016847	1478.768232	13.557581	-0.015527	2.236275
83.972432	1476.739766	13.562586	-0.015519	2.234832
84.167119	1474.683070	13.567591	-0.015554	2.233422
83.989447	1472.742872	13.572595	-0.015522	2.232010
83.984676	1470.745668	13.577600	-0.015521	2.230596
84.075910	1468.667093	13.582605	-0.015537	2.229145
84.167166	1466.684979	13.587610	-0.015554	2.227761
84.054608	1464.728146	13.592615	-0.015533	2.226348
83.933024	1462.762910	13.597619	-0.015511	2.224927
83.974158	1460.703431	13.602624	-0.015519	2.223474
83.886419	1458.775323	13.607629	-0.015503	2.222085
83.970268	1456.729503	13.612634	-0.015518	2.220650
83.857231	1454.758158	13.617639	-0.015497	2.219222
83.991415	1452.741726	13.622643	-0.015521	2.217818
84.017961	1450.777543	13.627648	-0.015526	2.216425
83.912117	1448.777531	13.632653	-0.015507	2.214976
83.863890	1446.777648	13.637658	-0.015498	2.213539
83.858569	1444.772461	13.642663	-0.015497	2.212107
83.978173	1442.750781	13.647667	-0.015519	2.210691
83.853266	1440.736770	13.652672	-0.015496	2.209223
83.801996	1438.790027	13.657677	-0.015487	2.207820
83.779981	1436.799693	13.662682	-0.015483	2.206391
83.705618	1434.798722	13.667687	-0.015469	2.204942
83.893025	1432.725969	13.672691	-0.015503	2.203500
83.905857	1430.764395	13.677696	-0.015505	2.202097
83.923082	1428.744799	13.682701	-0.015508	2.200652
83.783598	1426.789796	13.687706	-0.015483	2.199218
83.718690	1424.786990	13.692711	-0.015471	2.197764
83.772301	1422.827111	13.697715	-0.015481	2.196368
83.631176	1420.831851	13.702720	-0.015455	2.194901
83.855442	1418.741528	13.707725	-0.015495	2.193448
83.516774	1416.880718	13.712730	-0.015434	2.192031
83.600977	1414.830418	13.717735	-0.015449	2.190573
83.540992	1412.805463	13.722739	-0.015438	2.189099
83.554537	1410.849980	13.727744	-0.015441	2.187692
83.535070	1408.835362	13.732749	-0.015437	2.186233
83.540686	1406.822968	13.737754	-0.015438	2.184780
83.596399	1404.782366	13.742759	-0.015448	2.183318
83.656851	1402.811925	13.747763	-0.015459	2.181906
83.603558	1400.806307	13.752768	-0.015449	2.180442
83.584377	1398.815532	13.757773	-0.015446	2.178996
83.477411	1396.864374	13.762778	-0.015426	2.177557
83.607810	1394.860231	13.767783	-0.015450	2.176134
83.538159	1392.840466	13.772787	-0.015437	2.174651
83.696184	1390.796180	13.777792	-0.015466	2.173203
83.462386	1388.886653	13.782797	-0.015423	2.171761
83.421350	1386.889995	13.787802	-0.015416	2.170300
83.368165	1384.843464	13.792807	-0.015406	2.168798
83.317526	1382.904686	13.797811	-0.015397	2.167375
83.317025	1380.882691	13.802816	-0.015397	2.165901
83.362323	1378.848535	13.807821	-0.015405	2.164428
83.205101	1376.887613	13.812826	-0.015376	2.162961
83.268250	1374.891962	13.817831	-0.015388	2.161518
83.364156	1372.838270	13.822835	-0.015405	2.160040
83.324323	1370.838443	13.827840	-0.015398	2.158568
83.262668	1368.920953	13.832845	-0.015386	2.157151
83.250564	1366.920304	13.837850	-0.015384	2.155683
83.233997	1364.865796	13.842855	-0.015381	2.154174
83.114972	1362.941851	13.847859	-0.015359	2.152736
83.035380	1360.940706	13.852864	-0.015345	2.151249
83.105364	1358.904887	13.857869	-0.015358	2.149771
82.987099	1356.914224	13.862874	-0.015336	2.148280
82.983665	1354.959391	13.867879	-0.015335	2.146842
83.026004	1352.917435	13.872883	-0.015343	2.145350
83.019551	1350.910917	13.877888	-0.015342	2.143871
82.852076	1348.968475	13.882893	-0.015311	2.142401
82.974787	1346.924920	13.887898	-0.015333	2.140923
82.919843	1344.915635	13.892903	-0.015323	2.139428
83.000102	1342.942741	13.897907	-0.015338	2.137990
83.078345	1340.921945	13.902912	-0.015352	2.136516
83.038968	1338.928109	13.907917	-0.015345	2.135033
83.130002	1336.873704	13.912922	-0.015361	2.133534
83.041423	1334.954268	13.917927	-0.015345	2.132093
82.869174	1332.945189	13.922931	-0.015314	2.130563
83.160057	1330.874417	13.927936	-0.015366	2.129097
83.074246	1328.936914	13.932941	-0.015351	2.127640
82.964099	1326.975976	13.937946	-0.015331	2.126158
83.057488	1324.905270	13.942951	-0.015348	2.124642
82.989429	1322.959287	13.947955	-0.015335	2.123179
83.016294	1320.949443	13.952960	-0.015340	2.121690
83.067505	1318.940748	13.957965	-0.015349	2.120207
82.783733	1316.994683	13.962970	-0.015298	2.118690
83.018365	1314.989901	13.967975	-0.015340	2.117251
82.891672	1312.984444	13.972979	-0.015317	2.115725
82.892279	1310.989625	13.977984	-0.015317	2.114236
82.736196	1309.044770	13.982989	-0.015289	2.112745
82.739519	1307.040836	13.987994	-0.015289	2.111248
82.673780	1305.013540	13.992999	-0.015277	2.109716
82.796744	1302.991408	13.998003	-0.015300	2.108231
82.756302	1301.010580	14.003008	-0.015292	2.106738
82.690675	1299.028633	14.008013	-0.015280	2.105236
82.680513	1297.003081	14.013018	-0.015278	2.103714
82.777961	1295.027385	14.018023	-0.015296	2.102254
82.452301	1293.085405	14.023027	-0.015237	2.100716
82.601098	1291.019836	14.028032	-0.015264	2.099199
82.760463	1289.008517	14.033037	-0.015292	2.097724
82.720774	1287.046519	14.038042	-0.015285	2.096238
82.529181	1285.061610	14.043047	-0.015251	2.094696
82.618246	1283.046846	14.048051	-0.015267	2.093198
82.587090	1281.034480	14.053056	-0.015261	2.091672
82.616740	1279.014800	14.058061	-0.015266	2.090154
82.490121	1277.038740	14.063066	-0.015243	2.088630
82.658185	1275.040226	14.068071	-0.015273	2.087160
82.553934	1273.039876	14.073075	-0.015255	2.085620
82.650461	1271.015017	14.078080	-0.015272	2.084110
82.557734	1269.061503	14.083085	-0.015255	2.082607
82.657869	1267.038150	14.088090	-0.015273	2.081097
82.517601	1265.057370	14.093095	-0.015248	2.079560
82.705900	1263.036708	14.098099	-0.015282	2.078071
82.620511	1261.064632	14.103104	-0.015266	2.076551
82.502485	1259.095913	14.108109	-0.015245	2.075025
82.536119	1257.069624	14.113114	-0.015251	2.073491
82.384805	1255.144089	14.118119	-0.015223	2.071987
82.486406	1253.061624	14.123123	-0.015242	2.070424
82.671948	1251.021367	14.128128	-0.015275	2.068913
82.429831	1249.149680	14.133133	-0.015231	2.067425
82.484778	1247.118393	14.138138	-0.015241	2.065887
82.601056	1245.050681	14.143143	-0.015262	2.064334
82.482522	1243.131504	14.148147	-0.015240	2.062837
82.421672	1241.124462	14.153152	-0.015229	2.061285
82.277852	1239.160960	14.158157	-0.015203	2.059745
82.325756	1237.168312	14.163162	-0.015212	2.058229
82.446730	1235.144616	14.168167	-0.015234	2.056706
82.334038	1233.142854	14.173171	-0.015213	2.055140
82.287111	1231.174842	14.178176	-0.015205	2.053616
82.232230	1229.174963	14.183181	-0.015195	2.052064
82.374516	1227.120725	14.188186	-0.015220	2.050518
82.243692	1225.145959	14.193191	-0.015197	2.048965
82.214560	1223.206112	14.198195	-0.015191	2.047462
82.041186	1221.210081	14.203200	-0.015160	2.045879
82.258756	1219.139604	14.208205	-0.015199	2.044335
82.264099	1217.160525	14.213210	-0.015200	2.042807
82.327856	1215.150344	14.218215	-0.015211	2.041269
82.190697	1213.157930	14.223219	-0.015187	2.039693
82.221849	1211.199592	14.228224	-0.015192	2.038184
82.208689	1209.190362	14.233229	-0.015190	2.036624
82.255178	1207.164010	14.238234	-0.015198	2.035064
82.156085	1205.201304	14.243239	-0.015180	2.033516
82.243696	1203.193661	14.248243	-0.015196	2.031978
82.107262	1201.195275	14.253248	-0.015171	2.030390
82.036623	1199.239810	14.258253	-0.015158	2.028851
82.021761	1197.248581	14.263258	-0.015155	2.027297
81.925907	1195.272452	14.268263	-0.015138	2.025734
81.965266	1193.239552	14.273267	-0.015145	2.024158
81.977983	1191.278220	14.278272	-0.015147	2.022631
81.856043	1189.268414	14.283277	-0.015125	2.021031
81.858238	1187.254022	14.288282	-0.015125	2.019457
82.103461	1185.215034	14.293287	-0.015170	2.017924
81.934894	1183.283700	14.298291	-0.015139	2.016370
82.027823	1181.201763	14.303296	-0.015156	2.014762
82.062750	1179.239139	14.308301	-0.015162	2.013233
81.861494	1177.294396	14.313306	-0.015126	2.011656
82.002902	1175.228973	14.318311	-0.015151	2.010070
81.790726	1173.315170	14.323315	-0.015113	2.008512
81.908867	1171.276897	14.328320	-0.015134	2.006939
81.666479	1169.322469	14.333325	-0.015090	2.005339
81.752980	1167.304930	14.338330	-0.015106	2.003772
81.801952	1165.279524	14.343335	-0.015114	2.002188
81.813224	1163.277808	14.348339	-0.015116	2.000612
81.721127	1161.306821	14.353344	-0.015100	1.999032
81.824439	1159.315151	14.358349	-0.015118	1.997485
81.775464	1157.283204	14.363354	-0.015109	1.995865
81.636410	1155.345810	14.368359	-0.015084	1.994296
81.744724	1153.309475	14.373363	-0.015104	1.992711
81.640514	1151.336568	14.378368	-0.015085	1.991121
81.554803	1149.345898	14.383373	-0.015069	1.989519
81.791149	1147.325474	14.388378	-0.015112	1.987976
81.570722	1145.352843	14.393383	-0.015072	1.986352
81.582889	1143.342126	14.398387	-0.015074	1.984756
81.679755	1141.327877	14.403392	-0.015091	1.983178
81.669055	1139.338754	14.408397	-0.015089	1.981591
81.568772	1137.339798	14.413402	-0.015071	1.979972
81.688972	1135.368309	14.418407	-0.015093	1.978430
81.488500	1133.423317	14.423411	-0.015057	1.976825
81.508904	1131.403736	14.428416	-0.015060	1.975217
81.553600	1129.387265	14.433421	-0.015068	1.973616
81.576359	1127.381490	14.438426	-0.015072	1.972016
81.367263	1125.406906	14.443431	-0.015034	1.970380
81.367745	1123.448051	14.448435	-0.015034	1.968810
81.535580	1121.378597	14.453440	-0.015065	1.967193
81.506128	1119.387555	14.458445	-0.015059	1.965587
81.317186	1117.433314	14.463450	-0.015025	1.963967
81.308905	1115.454201	14.468455	-0.015023	1.962373
81.358758	1113.405455	14.473459	-0.015032	1.960737
81.245343	1111.477747	14.478464	-0.015012	1.959154
81.097276	1109.520145	14.483469	-0.014985	1.957537
81.348134	1107.422217	14.488474	-0.015030	1.955910
81.336553	1105.413867	14.493479	-0.015028	1.954285
81.260691	1103.458033	14.498483	-0.015014	1.952684
81.167198	1101.469838	14.503488	-0.014997	1.951051
81.239538	1099.459407	14.508493	-0.015010	1.949443
81.026247	1097.523021	14.513498	-0.014972	1.947818
81.269793	1095.448196	14.518503	-0.015016	1.946199
81.084923	1093.487071	14.523507	-0.014982	1.944559
81.236894	1091.487265	14.528512	-0.015009	1.942974
81.035025	1089.498587	14.533517	-0.014973	1.941304
81.210547	1087.442395	14.538522	-0.015005	1.939678
80.951956	1085.559434	14.543527	-0.014958	1.938075
81.200519	1083.449629	14.548531	-0.015003	1.936422
81.139852	1081.455356	14.553536	-0.014991	1.934779
81.143143	1079.490864	14.558541	-0.014992	1.933176
81.030184	1077.497746	14.563546	-0.014972	1.931517
81.163768	1075.464693	14.568551	-0.014996	1.929890
81.100245	1073.515903	14.573555	-0.014984	1.928278
81.114304	1071.500028	14.578560	-0.014986	1.926631
80.849278	1069.557342	14.583565	-0.014939	1.924967
80.849073	1067.607957	14.588570	-0.014938	1.923367
80.976683	1065.509241	14.593575	-0.014961	1.921678
81.075431	1063.493677	14.598579	-0.014979	1.920047
80.960323	1061.578439	14.603584	-0.014958	1.918441
81.043639	1059.546425	14.608589	-0.014973	1.916790
81.003415	1057.532245	14.613594	-0.014966	1.915119
80.922310	1055.603556	14.618599	-0.014951	1.913507
80.817757	1053.600836	14.623603	-0.014932	1.911825
80.795060	1051.596774	14.628608	-0.014928	1.910163
80.664752	1049.658495	14.633613	-0.014904	1.908525
80.963216	1047.566518	14.638618	-0.014958	1.906874
80.732860	1045.597312	14.643623	-0.014917	1.905180
80.719080	1043.658492	14.648627	-0.014914	1.903569
80.802930	1041.612309	14.653632	-0.014929	1.901894
80.817203	1039.600041	14.658637	-0.014932	1.900227
80.687445	1037.683563	14.663642	-0.014908	1.898598
80.711977	1035.682675	14.668647	-0.014912	1.896940
80.634786	1033.640180	14.673651	-0.014898	1.895218
80.772995	1031.645139	14.678656	-0.014923	1.893593
80.535570	1029.684548	14.683661	-0.014880	1.891892
80.749220	1027.611610	14.688666	-0.014919	1.890220
80.654615	1025.678115	14.693671	-0.014902	1.888578
80.784452	1023.633678	14.698675	-0.014925	1.886904
80.578235	1021.664711	14.703680	-0.014888	1.885199
80.667695	1019.713414	14.708685	-0.014904	1.883588
80.447732	1017.714791	14.713690	-0.014864	1.881852
80.572415	1015.681762	14.718695	-0.014886	1.880179
80.423917	1013.765258	14.723699	-0.014859	1.878528
80.565445	1011.701275	14.728704	-0.014885	1.876832
80.525928	1009.704372	14.733709	-0.014878	1.875140
80.478820	1007.749739	14.738714	-0.014869	1.873480
80.301008	1005.775314	14.743719	-0.014837	1.871766
80.519821	1003.701738	14.748723	-0.014876	1.870077
80.512963	1001.738679	14.753728	-0.014875	1.868417
80.556154	999.707621	14.758733	-0.014883	1.866712
80.274281	997.785588	14.763738	-0.014832	1.865007
80.414786	995.787260	14.768743	-0.014857	1.863353
80.316608	993.774012	14.773747	-0.014839	1.861619
80.478348	991.750735	14.778752	-0.014868	1.859947
80.352431	989.802139	14.783757	-0.014846	1.858257
80.294225	987.825244	14.788762	-0.014835	1.856560
80.069311	985.864942	14.793767	-0.014794	1.854830
80.296921	983.812366	14.798771	-0.014835	1.853145
80.148445	981.820659	14.803776	-0.014808	1.851406
80.086341	979.867787	14.808781	-0.014797	1.849722
80.034440	977.859108	14.813786	-0.014788	1.847992
80.139071	975.819515	14.818791	-0.014807	1.846278
80.051562	973.833789	14.823795	-0.014791	1.844554
80.090650	971.861539	14.828800	-0.014798	1.842876
79.973989	969.847078	14.833805	-0.014776	1.841116
80.112592	967.861221	14.838810	-0.014801	1.839452
79.926923	965.892351	14.843815	-0.014768	1.837708
80.061124	963.839289	14.848819	-0.014792	1.835981
80.071214	961.840347	14.853824	-0.014794	1.834264
80.101592	959.848009	14.858829	-0.014799	1.832557
80.029616	957.852097	14.863834	-0.014786	1.830816
79.886867	955.950468	14.868839	-0.014760	1.829135
79.965146	953.883428	14.873843	-0.014774	1.827372
80.010824	951.873473	14.878848	-0.014782	1.825647
79.853285	949.953751	14.883853	-0.014754	1.823941
79.896710	947.914242	14.888858	-0.014762	1.822187
80.062716	945.859527	14.893863	-0.014792	1.820453
80.038022	943.954004	14.898867	-0.014787	1.818792
79.897482	941.962473	14.903872	-0.014762	1.817022
79.856292	939.976996	14.908877	-0.014754	1.815284
79.852354	937.975247	14.913882	-0.014753	1.813541
79.781048	935.989562	14.918887	-0.014740	1.811791
79.717766	933.987613	14.923891	-0.014729	1.810027
79.693151	932.027983	14.928896	-0.014724	1.808310
79.768887	929.972853	14.933901	-0.014738	1.806536
79.826249	927.972864	14.938906	-0.014748	1.804804
79.797089	925.993143	14.943911	-0.014743	1.803062
79.768792	923.986392	14.948915	-0.014738	1.801296
79.806320	922.001354	14.953920	-0.014744	1.799566
79.714291	920.056330	14.958925	-0.014728	1.797832
79.714275	918.007757	14.963930	-0.014727	1.796032
79.663613	916.075502	14.968935	-0.014718	1.794317
79.626018	914.052201	14.973939	-0.014711	1.792525
79.896165	911.962809	14.978944	-0.014760	1.790762
79.577961	910.109922	14.983949	-0.014703	1.789035
79.769898	908.045634	14.988954	-0.014737	1.787268
79.620401	906.072586	14.993959	-0.014710	1.785480
79.495442	904.153245	14.998963	-0.014687	1.783746
79.508853	902.109436	15.003968	-0.014690	1.781939
79.632905	900.099942	15.008973	-0.014712	1.780194
79.575671	898.123085	15.013978	-0.014702	1.778423
79.598884	896.112853	15.018983	-0.014706	1.776644
79.481966	894.143922	15.023987	-0.014685	1.774859
79.419940	892.153441	15.028992	-0.014673	1.773069
79.472602	890.103439	15.033997	-0.014683	1.771258
79.480361	888.166560	15.039002	-0.014684	1.769533
79.447747	886.156148	15.044007	-0.014678	1.767728
79.367886	884.166047	15.049011	-0.014664	1.765926
79.408213	882.169988	15.054016	-0.014671	1.764152
79.525658	880.145698	15.059021	-0.014692	1.762374
79.360228	878.188116	15.064026	-0.014662	1.760570
79.440628	876.188631	15.069031	-0.014676	1.758800
79.311117	874.192348	15.074035	-0.014653	1.756968
79.444285	872.183069	15.079040	-0.014677	1.755201
79.261994	870.232886	15.084045	-0.014644	1.753392
79.254852	868.229218	15.089050	-0.014643	1.751584
79.208346	866.254667	15.094055	-0.014634	1.749789
79.378004	864.212631	15.099059	-0.014665	1.747996
79.135537	862.267894	15.104064	-0.014621	1.746166
79.303512	860.260520	15.109069	-0.014651	1.744400
79.254233	858.243900	15.114074	-0.014642	1.742559
79.278323	856.249337	15.119079	-0.014646	1.740758
79.182900	854.317758	15.124083	-0.014629	1.738976
79.156020	852.311383	15.129088	-0.014624	1.737145
79.154670	850.316336	15.134093	-0.014624	1.735331
79.250727	848.297412	15.139098	-0.014641	1.733522
79.134030	846.303701	15.144103	-0.014620	1.731669
78.963645	844.393079	15.149107	-0.014589	1.729875
79.087364	842.329203	15.154112	-0.014611	1.728027
79.109723	840.314419	15.159117	-0.014615	1.726192
79.069610	838.349599	15.164122	-0.014608	1.724381
79.096302	836.333526	15.169127	-0.014613	1.722542
78.903546	834.395331	15.174131	-0.014578	1.720706
78.855609	832.450969	15.179136	-0.014569	1.718906
78.855398	830.402518	15.184141	-0.014569	1.717023
78.910582	828.425738	15.189146	-0.014579	1.715221
78.740192	826.455479	15.194151	-0.014548	1.713354
78.908891	824.385117	15.199155	-0.014578	1.711497
78.828400	822.443150	15.204160	-0.014564	1.709680
78.886920	820.418767	15.209165	-0.014574	1.707827
78.737418	818.455737	15.214170	-0.014547	1.705965
78.715010	816.496806	15.219175	-0.014543	1.704144
78.740014	814.453880	15.224179	-0.014547	1.702257
78.803635	812.459193	15.229184	-0.014559	1.700426
78.613440	810.529032	15.234189	-0.014524	1.698574
78.732312	808.484016	15.239194	-0.014546	1.696708
78.608656	806.520523	15.244199	-0.014523	1.694842
78.671453	804.500567	15.249203	-0.014535	1.692978
78.553035	802.520532	15.254208	-0.014513	1.691094
78.584050	800.551305	15.259213	-0.014519	1.689263
78.538791	798.523516	15.264218	-0.014510	1.687353
78.521312	796.557770	15.269223	-0.014507	1.685507
78.408742	794.585067	15.274227	-0.014487	1.683622
78.502375	792.541643	15.279232	-0.014504	1.681734
78.406644	790.603547	15.284237	-0.014486	1.679883
78.468294	788.583199	15.289242	-0.014497	1.678002
78.382278	786.594724	15.294247	-0.014482	1.676103
78.378651	784.617997	15.299251	-0.014481	1.674239
78.376329	782.595264	15.304256	-0.014480	1.672329
78.304086	780.650154	15.309261	-0.014467	1.670469
78.216448	778.666522	15.314266	-0.014451	1.668565
78.419158	776.595325	15.319271	-0.014488	1.666668
78.282217	774.670399	15.324275	-0.014463	1.664800
78.414506	772.623240	15.329280	-0.014487	1.662899
78.344665	770.648721	15.334285	-0.014474	1.661001
78.296250	768.717232	15.339290	-0.014465	1.659148
78.364929	766.659252	15.344295	-0.014478	1.657210
78.163273	764.761087	15.349299	-0.014441	1.655336
78.156643	762.729319	15.354304	-0.014440	1.653395
78.207058	760.705551	15.359309	-0.014449	1.651477
78.094583	758.758858	15.364314	-0.014429	1.649579
78.197613	756.723461	15.369319	-0.014447	1.647662
78.243992	754.715639	15.374323	-0.014455	1.645751
78.146242	752.766539	15.379328	-0.014438	1.643849
78.212906	750.730910	15.384333	-0.014450	1.641914
78.043789	748.835571	15.389338	-0.014419	1.640036
78.028312	746.803719	15.394343	-0.014416	1.638073
78.219109	744.768138	15.399347	-0.014451	1.636171
78.036107	742.824199	15.404352	-0.014417	1.634235
78.050050	740.825221	15.409357	-0.014420	1.632307
77.920977	738.872372	15.414362	-0.014396	1.630375
78.146644	736.803790	15.419367	-0.014437	1.628443
78.010229	734.850091	15.424371	-0.014412	1.626503
77.908903	732.915478	15.429376	-0.014394	1.624591
77.984878	730.852356	15.434381	-0.014408	1.622609
78.011716	728.883924	15.439386	-0.014412	1.620701
77.998415	726.875380	15.444391	-0.014410	1.618739
78.034941	724.869065	15.449395	-0.014416	1.616792
77.821050	722.943677	15.454400	-0.014378	1.614841
77.857410	720.918472	15.459405	-0.014384	1.612871
77.767526	718.960749	15.464410	-0.014368	1.610924
77.871563	716.935743	15.469415	-0.014387	1.608972
77.729194	714.959110	15.474419	-0.014361	1.606984
77.899819	712.953792	15.479424	-0.014392	1.605068
77.772052	710.965468	15.484429	-0.014368	1.603069
77.746329	708.994726	15.489434	-0.014364	1.601118
77.836987	706.978870	15.494439	-0.014380	1.599158
77.874658	704.961720	15.499443	-0.014387	1.597178
77.820764	703.000283	15.504448	-0.014377	1.595219
77.733851	701.026519	15.509453	-0.014361	1.593236
77.749166	699.022403	15.514458	-0.014364	1.591253
77.704426	697.068243	15.519463	-0.014356	1.589298
77.662279	695.067784	15.524467	-0.014348	1.587295
77.688044	693.098807	15.529472	-0.014353	1.585343
77.455051	691.155640	15.534477	-0.014310	1.583329
77.685889	689.096206	15.539482	-0.014352	1.581351
77.590946	687.148370	15.544487	-0.014335	1.579373
77.579625	685.147209	15.549491	-0.014333	1.577367
77.427869	683.198528	15.554496	-0.014305	1.575364
77.403840	681.200201	15.559501	-0.014301	1.573351
77.421489	679.183927	15.564506	-0.014304	1.571332
77.404100	677.215347	15.569511	-0.014301	1.569347
77.377463	675.194584	15.574515	-0.014296	1.567303
77.311749	673.254264	15.579520	-0.014284	1.565325
77.245258	671.247464	15.584525	-0.014272	1.563277
77.268761	669.266027	15.589530	-0.014276	1.561282
77.284126	667.256551	15.594535	-0.014279	1.559253
77.370580	665.226099	15.599539	-0.014294	1.557225
77.137920	663.320554	15.604544	-0.014252	1.555212
77.290768	661.264531	15.609549	-0.014280	1.553175
77.223394	659.296191	15.614554	-0.014267	1.551150
77.161267	657.336806	15.619559	-0.014256	1.549132
77.168329	655.303981	15.624563	-0.014257	1.547061
77.163433	653.357154	15.629568	-0.014256	1.545071
76.969093	651.388094	15.634573	-0.014221	1.542991
77.096465	649.392468	15.639578	-0.014244	1.540991
77.075739	647.387125	15.644583	-0.014240	1.538927
77.044010	645.386816	15.649587	-0.014234	1.536862
77.003430	643.413276	15.654592	-0.014227	1.534819
77.040641	641.384232	15.659597	-0.014234	1.532743
76.964378	639.433787	15.664602	-0.014220	1.530706
76.989917	637.429340	15.669607	-0.014224	1.528645
76.959334	635.434405	15.674611	-0.014219	1.526573
76.976469	633.449329	15.679616	-0.014222	1.524524
76.981176	631.431217	15.684621	-0.014222	1.522434
76.873703	629.523844	15.689626	-0.014203	1.520416
76.841302	627.518873	15.694631	-0.014197	1.518321
76.929037	625.504228	15.699635	-0.014213	1.516255
76.627476	623.589954	15.704640	-0.014158	1.514154
76.783528	621.549514	15.709645	-0.014186	1.512080
76.840029	619.543703	15.714650	-0.014196	1.510003
76.875964	617.530261	15.719655	-0.014203	1.507909
76.685457	615.617684	15.724659	-0.014168	1.505837
76.677417	613.627723	15.729664	-0.014167	1.503746
76.708952	611.630746	15.734669	-0.014172	1.501659
76.678403	609.662063	15.739674	-0.014167	1.499576
76.511903	607.698041	15.744679	-0.014137	1.497447
76.526295	605.706308	15.749683	-0.014139	1.495351
76.529510	603.674786	15.754688	-0.014140	1.493205
76.639746	601.669597	15.759693	-0.014160	1.491122
76.459470	599.727248	15.764698	-0.014127	1.488999
76.621435	597.683971	15.769703	-0.014156	1.486889
76.615246	595.703806	15.774707	-0.014155	1.484782
76.347211	593.786750	15.779712	-0.014106	1.482645
76.453968	591.788302	15.784717	-0.014126	1.480554
76.262679	589.831200	15.789722	-0.014091	1.478396
76.342466	587.813925	15.794727	-0.014105	1.476268
76.351012	585.812802	15.799731	-0.014107	1.474129
76.471592	583.780637	15.804736	-0.014128	1.471994
76.399414	581.839024	15.809741	-0.014115	1.469884
76.472734	579.797807	15.814746	-0.014129	1.467716
76.399861	577.871280	15.819751	-0.014115	1.465615
76.448528	575.834995	15.824755	-0.014124	1.463437
76.241229	573.955589	15.829760	-0.014086	1.461332
76.263046	571.930257	15.834765	-0.014090	1.459150
76.408763	569.898281	15.839770	-0.014117	1.457002
76.228884	567.958528	15.844775	-0.014084	1.454833
76.257743	565.954151	15.849779	-0.014089	1.452666
76.083769	564.026698	15.854784	-0.014058	1.450505
76.140065	561.996356	15.859789	-0.014068	1.448314
76.057356	560.034119	15.864794	-0.014053	1.446142
75.937338	558.070526	15.869799	-0.014031	1.443952
75.999083	556.062537	15.874803	-0.014042	1.441777
76.148370	554.030305	15.879808	-0.014069	1.439605
75.909464	552.104839	15.884813	-0.014026	1.437402
75.951490	550.096937	15.889818	-0.014033	1.435210
75.881403	548.101167	15.894823	-0.014020	1.432986
75.875233	546.151645	15.899827	-0.014019	1.430834
76.037131	544.081302	15.904832	-0.014048	1.428608
75.859309	542.171254	15.909837	-0.014016	1.426428
75.788122	540.189930	15.914842	-0.014003	1.424206
75.702603	538.247520	15.919847	-0.013988	1.422019
75.724889	536.245205	15.924851	-0.013992	1.419802
75.794142	534.226848	15.929856	-0.014004	1.417581
75.692077	532.256991	15.934861	-0.013986	1.415347
75.816191	530.215386	15.939866	-0.014008	1.413114
75.703918	528.283632	15.944871	-0.013988	1.410911
75.737207	526.271311	15.949875	-0.013994	1.408669
75.655503	524.326359	15.954880	-0.013979	1.406456
75.707343	522.299767	15.959885	-0.013988	1.404199
75.770341	520.310716	15.964890	-0.013999	1.401984
75.678382	518.359532	15.969895	-0.013983	1.399749
75.637715	516.369376	15.974899	-0.013975	1.397487
75.622201	514.387712	15.979904	-0.013972	1.395240
75.526524	512.422572	15.984909	-0.013955	1.392977
75.449828	510.473617	15.989914	-0.013941	1.390736
75.587634	508.418732	15.994919	-0.013966	1.388454
75.638105	506.447643	15.999923	-0.013975	1.386230
75.603680	504.457102	16.004928	-0.013969	1.383947
75.654883	502.479404	16.009933	-0.013978	1.381708
75.491981	500.540717	16.014938	-0.013948	1.379428
75.392373	498.583273	16.019943	-0.013930	1.377146
75.310732	496.590819	16.024947	-0.013915	1.374827
75.321702	494.613418	16.029952	-0.013917	1.372559
75.404309	492.584433	16.034957	-0.013932	1.370254
75.296761	490.634583	16.039962	-0.013913	1.367963
75.216171	488.673495	16.044967	-0.013898	1.365666
75.116686	486.698201	16.049971	-0.013880	1.363341
75.261340	484.687503	16.054976	-0.013906	1.361067
75.363448	482.646469	16.059981	-0.013924	1.358737
75.231550	480.716686	16.064986	-0.013900	1.356440
75.241694	478.717531	16.069991	-0.013902	1.354114
75.262565	476.724693	16.074995	-0.013906	1.351797
75.220476	474.757899	16.080000	-0.013898	1.349480
75.104572	472.812328	16.085005	-0.013877	1.347155
75.029301	470.846909	16.090010	-0.013863	1.344819
74.925272	468.892762	16.095015	-0.013845	1.342481
75.047594	466.872367	16.100019	-0.013867	1.340151
75.060806	464.878305	16.105024	-0.013869	1.337805
75.004959	462.907308	16.110029	-0.013859	1.335454
74.914703	460.937780	16.115034	-0.013842	1.333086
74.861501	458.981863	16.120039	-0.013833	1.330745
74.785538	456.998187	16.125043	-0.013819	1.328359
74.795573	455.014941	16.130048	-0.013821	1.326003
74.794156	453.004838	16.135053	-0.013820	1.323606
74.833828	451.037111	16.140058	-0.013827	1.321272
74.911046	449.002856	16.145063	-0.013841	1.318870
74.749831	447.093432	16.150067	-0.013812	1.316516
74.909195	445.041747	16.155072	-0.013841	1.314118
74.764388	443.126821	16.160077	-0.013814	1.311755
74.848717	441.092695	16.165082	-0.013830	1.309339
74.650993	439.201777	16.170087	-0.013794	1.306975
74.724051	437.172237	16.175091	-0.013807	1.304550
74.764176	435.175098	16.180096	-0.013814	1.302147
74.836841	433.150328	16.185101	-0.013827	1.299719
74.734362	431.212714	16.190106	-0.013809	1.297320
74.691964	429.227955	16.195111	-0.013801	1.294884
74.621801	427.279440	16.200115	-0.013788	1.292477
74.545347	425.305196	16.205120	-0.013774	1.290030
74.498199	423.348337	16.210125	-0.013766	1.287613
74.482126	421.350073	16.215130	-0.013763	1.285153
74.481291	419.378640	16.220135	-0.013762	1.282727
74.489404	417.392054	16.225139	-0.013764	1.280283
74.363572	415.449759	16.230144	-0.013741	1.277832
74.384279	413.446342	16.235149	-0.013745	1.275362
74.365783	411.477307	16.240154	-0.013741	1.272914
74.280416	409.514545	16.245159	-0.013726	1.270440
74.360311	407.510578	16.250163	-0.013740	1.267980
74.255117	405.550706	16.255168	-0.013721	1.265492
74.245037	403.577496	16.260173	-0.013719	1.263023
74.379895	401.563512	16.265178	-0.013743	1.260560
74.339192	399.591521	16.270183	-0.013736	1.258070
74.140995	397.671624	16.275187	-0.013700	1.255572
74.206414	395.670981	16.280192	-0.013712	1.253081
74.124117	393.709286	16.285197	-0.013697	1.250571
74.145355	391.724197	16.290202	-0.013701	1.248071
74.071900	389.758829	16.295207	-0.013687	1.245550
74.259687	387.723325	16.300211	-0.013721	1.243048
74.066474	385.809352	16.305216	-0.013686	1.240530
74.187224	383.788549	16.310221	-0.013708	1.238007
73.992565	381.865364	16.315226	-0.013673	1.235466
74.098545	379.854657	16.320231	-0.013692	1.232940
73.897128	377.939168	16.325235	-0.013655	1.230395
73.733585	376.014383	16.330240	-0.013626	1.227850
73.750265	373.993263	16.335245	-0.013629	1.225255
73.722286	372.041817	16.340250	-0.013623	1.222725
73.724384	370.047687	16.345255	-0.013624	1.220148
73.647407	368.093804	16.350259	-0.013610	1.217582
73.590775	366.100368	16.355264	-0.013599	1.214968
73.551992	364.149950	16.360269	-0.013592	1.212413
73.579844	362.133024	16.365274	-0.013597	1.209796
73.556351	360.171412	16.370279	-0.013593	1.207222
73.571396	358.167962	16.375283	-0.013596	1.204605
73.653809	356.190972	16.380288	-0.013610	1.202047
73.617379	354.202390	16.385293	-0.013604	1.199415
73.482847	352.278456	16.390298	-0.013579	1.196818
73.333195	350.332249	16.395303	-0.013552	1.194180
73.312540	348.376050	16.400307	-0.013548	1.191580
73.454573	346.329322	16.405312	-0.013574	1.188929
73.516245	344.346602	16.410317	-0.013585	1.186321
73.317307	342.438590	16.415322	-0.013549	1.183687
73.337165	340.461278	16.420327	-0.013553	1.181055
73.041305	338.575663	16.425331	-0.013499	1.178395
73.179264	336.539083	16.430336	-0.013524	1.175726
73.294373	334.519206	16.435341	-0.013545	1.173063
73.163902	332.583029	16.440346	-0.013521	1.170393
73.210189	330.597545	16.445351	-0.013529	1.167732
73.149391	328.622931	16.450355	-0.013518	1.165030
73.029611	326.710696	16.455360	-0.013496	1.162379
73.266741	324.633421	16.460365	-0.013539	1.159665
73.104489	322.718861	16.465370	-0.013510	1.156978
72.948424	320.793523	16.470375	-0.013482	1.154274
72.872432	318.840477	16.475379	-0.013468	1.151562
72.999982	316.824094	16.480384	-0.013491	1.148854
72.767070	314.923701	16.485389	-0.013449	1.146128
72.974895	312.883324	16.490394	-0.013486	1.143412
72.895913	310.932153	16.495399	-0.013472	1.140676
72.896997	308.955328	16.500403	-0.013472	1.137937
72.968641	306.934254	16.505408	-0.013485	1.135163
72.875618	305.021811	16.510413	-0.013468	1.132454
72.856238	303.036827	16.515418	-0.013464	1.129673
72.866674	301.063391	16.520423	-0.013466	1.126916
72.836494	299.099384	16.525427	-0.013461	1.124146
72.701644	297.175782	16.530432	-0.013436	1.121374
72.657715	295.218841	16.535437	-0.013428	1.118594
72.607315	293.247198	16.540442	-0.013419	1.115782
72.484141	291.320577	16.545447	-0.013397	1.112991
72.577032	289.305143	16.550451	-0.013413	1.110173
72.412968	287.398944	16.555456	-0.013384	1.107378
72.411073	285.413081	16.560461	-0.013383	1.104541
72.495814	283.422114	16.565466	-0.013398	1.101732
72.444011	281.463943	16.570471	-0.013389	1.098896
72.422328	279.483408	16.575475	-0.013385	1.096035
72.356096	277.554504	16.580480	-0.013373	1.093219
72.094214	275.641466	16.585485	-0.013325	1.090321
72.214171	273.641312	16.590490	-0.013347	1.087480
72.342828	271.625617	16.595495	-0.013370	1.084614
72.283875	269.687261	16.600499	-0.013360	1.081758
72.235920	267.725269	16.605504	-0.013351	1.078865
72.318368	265.717873	16.610509	-0.013366	1.075965
72.222838	263.798158	16.615514	-0.013348	1.073095
72.189973	261.832386	16.620519	-0.013342	1.070181
72.201133	259.868163	16.625523	-0.013344	1.067284
72.099203	257.940629	16.630528	-0.013326	1.064376
71.891331	256.031496	16.635533	-0.013288	1.061432
72.052578	254.008034	16.640538	-0.013317	1.058500
71.918271	252.064759	16.645543	-0.013293	1.055527
72.075925	250.061130	16.650547	-0.013321	1.052607
71.847557	248.156996	16.655552	-0.013280	1.049627
71.943103	246.163571	16.660557	-0.013297	1.046673
71.840242	244.233559	16.665562	-0.013278	1.043703
71.829438	242.267193	16.670567	-0.013276	1.040718
71.822583	240.310795	16.675571	-0.013275	1.037741
71.754919	238.356573	16.680576	-0.013263	1.034727
71.760559	236.391695	16.685581	-0.013264	1.031727
71.794308	234.421306	16.690586	-0.013270	1.028724
71.620900	232.510342	16.695591	-0.013238	1.025694
71.527722	230.598484	16.700595	-0.013221	1.022696
71.612848	228.593002	16.705600	-0.013237	1.019640
71.534057	226.650182	16.710605	-0.013222	1.016583
71.540035	224.685804	16.715610	-0.013223	1.013530
71.515199	222.721981	16.720615	-0.013219	1.010452
71.398716	220.802058	16.725619	-0.013198	1.007383
71.346452	218.862712	16.730624	-0.013188	1.004310
71.399448	216.874393	16.735629	-0.013198	1.001207
71.265403	214.962218	16.740634	-0.013173	0.998113
71.331460	212.968020	16.745639	-0.013185	0.994989
71.314009	211.014603	16.750643	-0.013182	0.991874
71.116417	209.128862	16.755648	-0.013146	0.988757
71.103229	207.164644	16.760653	-0.013144	0.985607
71.050881	205.216659	16.765658	-0.013134	0.982451
71.070401	203.239100	16.770663	-0.013138	0.979278
70.912152	201.321528	16.775667	-0.013109	0.976092
71.006251	199.334364	16.780672	-0.013126	0.972924
70.964378	197.383417	16.785677	-0.013118	0.969728
70.915094	195.432391	16.790682	-0.013109	0.966518
70.965428	193.480331	16.795687	-0.013118	0.963351
70.951538	191.518400	16.800691	-0.013116	0.960121
70.864937	189.581058	16.805696	-0.013100	0.956880
70.856933	187.643186	16.810701	-0.013099	0.953671
70.714218	185.728312	16.815706	-0.013073	0.950412
70.736673	183.766367	16.820711	-0.013077	0.947159
70.782675	181.812820	16.825715	-0.013085	0.943923
70.744029	179.872928	16.830720	-0.013078	0.940649
70.523533	177.988054	16.835725	-0.013038	0.937350
70.669836	175.985479	16.840730	-0.013064	0.934056
70.522446	174.080373	16.845735	-0.013038	0.930742
70.570978	172.100740	16.850739	-0.013046	0.927405
70.560540	170.171956	16.855744	-0.013044	0.924108
70.491073	168.236652	16.860749	-0.013032	0.920753
70.533682	166.266439	16.865754	-0.013039	0.917393
70.430085	164.366048	16.870759	-0.013021	0.914053
70.257034	162.470716	16.875763	-0.012989	0.910668
70.503308	160.434422	16.880768	-0.013034	0.907279
70.360130	158.556531	16.885773	-0.013008	0.903917
70.193910	156.655475	16.890778	-0.012978	0.900488
70.089847	154.728795	16.895783	-0.012959	0.897038
70.109009	152.781967	16.900787	-0.012962	0.893616
70.156115	150.820633	16.905792	-0.012970	0.890172
70.132833	148.881297	16.910797	-0.012966	0.886710
70.001330	146.987482	16.915802	-0.012942	0.883248
70.172995	144.980778	16.920807	-0.012973	0.879760
70.146236	143.046901	16.925811	-0.012968	0.876264
70.152355	141.111887	16.930816	-0.012969	0.872773
69.922969	139.261031	16.935821	-0.012928	0.869272
69.858165	137.337078	16.940826	-0.012916	0.865728
69.757736	135.432315	16.945831	-0.012898	0.862182
69.857869	133.456909	16.950835	-0.012916	0.858620
69.797947	131.542532	16.955840	-0.012905	0.855053
69.657579	129.643121	16.960845	-0.012880	0.851446
69.579853	127.732320	16.965850	-0.012865	0.847844
69.476477	125.837692	16.970855	-0.012847	0.844240
69.457041	123.899404	16.975859	-0.012843	0.840593
69.440264	121.963894	16.980864	-0.012840	0.836937
69.495403	120.010915	16.985869	-0.012850	0.833280
69.381740	118.120789	16.990874	-0.012829	0.829614
69.429211	116.172340	16.995879	-0.012838	0.825928
69.255952	114.302717	17.000883	-0.012806	0.822229
69.149340	112.399685	17.005888	-0.012787	0.818493
69.190185	110.449030	17.010893	-0.012794	0.814748
69.314097	108.478346	17.015898	-0.012817	0.811003
69.110011	106.611128	17.020903	-0.012780	0.807219
69.304472	104.632121	17.025907	-0.012815	0.803471
69.114124	102.766941	17.030912	-0.012780	0.799665
69.110244	100.842066	17.035917	-0.012780	0.795852
68.749440	99.042115	17.040922	-0.012714	0.792020
68.840272	97.084681	17.045927	-0.012731	0.788170
68.990647	95.122152	17.050931	-0.012758	0.784334
68.810600	93.264063	17.055936	-0.012725	0.780456
68.829526	91.329484	17.060941	-0.012729	0.776544
68.701602	89.457991	17.065946	-0.012705	0.772637
68.838268	87.487295	17.070951	-0.012730	0.768696
68.731613	85.619583	17.075955	-0.012711	0.764772
68.499385	83.783703	17.080960	-0.012669	0.760802
68.579354	81.839035	17.085965	-0.012683	0.756812
68.457694	79.963533	17.090970	-0.012661	0.752799
68.523198	78.039773	17.095975	-0.012673	0.748800
68.366463	76.189530	17.100979	-0.012644	0.744771
68.275984	74.305695	17.105984	-0.012628	0.740697
68.128044	72.436922	17.110989	-0.012601	0.736590
68.267417	70.476594	17.115994	-0.012626	0.732480
68.059754	68.638105	17.120999	-0.012589	0.728347
68.048193	66.744056	17.126003	-0.012586	0.724219
67.994762	64.859920	17.131008	-0.012577	0.720057
67.864147	63.000049	17.136013	-0.012553	0.715865
67.867962	61.097897	17.141018	-0.012554	0.711659
67.720807	59.251381	17.146023	-0.012527	0.707434
67.742066	57.350317	17.151027	-0.012531	0.703193
67.645681	55.482897	17.156032	-0.012513	0.698910
67.575514	53.613376	17.161037	-0.012501	0.694616
67.459904	51.759023	17.166042	-0.012480	0.690294
67.495248	49.856059	17.171047	-0.012486	0.685954
67.289127	48.038588	17.176051	-0.012449	0.681589
67.345380	46.127008	17.181056	-0.012459	0.677190
67.302360	44.259734	17.186061	-0.012451	0.672786
67.304581	42.375129	17.191066	-0.012451	0.668348
67.239688	40.513067	17.196071	-0.012439	0.663879
67.158373	38.656210	17.201075	-0.012425	0.659378
66.960145	36.845878	17.206080	-0.012389	0.654859
66.879934	34.994511	17.211085	-0.012374	0.650310
66.919358	33.110836	17.216090	-0.012381	0.645753
66.699205	31.313432	17.221095	-0.012341	0.641151
66.752209	29.423392	17.226099	-0.012351	0.636524
66.781682	27.546864	17.231104	-0.012356	0.631876
66.603102	25.770479	17.236109	-0.012324	0.627262
66.517788	24.065518	17.241114	-0.012308	0.622878
